Time	Channel A	Channel B	Channel C
(us)	(V)	(mV)	(mV)

-4.53333289	0.00000000	-52.08538000	-20.10950000
-4.33333290	0.00000000	-51.75935000	-20.43553000
-4.13333291	0.00000000	-51.01501000	-20.10950000
-3.93333293	0.00000000	-50.68897000	-19.41437000
-3.73333294	0.00000000	-50.97194000	-19.36516000
-3.53333295	0.00000000	-51.38410000	-19.73425000
-3.33333296	0.00000000	-51.34719000	-19.69734000
-3.13333297	0.00000000	-51.42716000	-19.73425000
-2.93333299	0.00000000	-51.39025000	-19.32210000
-2.73333300	0.00000000	-51.80241000	-18.98991000
-2.53333301	0.00000000	-52.08538000	-18.94685000
-2.33333302	0.00000000	-51.75935000	-18.94685000
-2.13333303	0.00000000	-51.06422000	-18.94685000
-1.93333304	0.00000000	-51.01501000	-18.94685000
-1.73333306	0.00000000	-51.38410000	-18.94685000
-1.53333307	0.00000000	-51.39025000	-18.94685000
-1.33333308	0.00000000	-51.75935000	-18.94685000
-1.13333309	0.00000000	-51.71013000	-18.94685000
-0.93333310	0.00000000	-51.06422000	-18.94685000
-0.73333312	0.00000000	-51.01501000	-18.94685000
-0.53333313	0.00000000	-51.38410000	-18.94685000
-0.33333314	0.15871060	-51.34719000	-18.94685000
-0.13333315	0.47736220	-51.38410000	-18.94685000
0.06666684	0.95533960	-51.01501000	-18.94685000
0.26666682	0.95533960	-51.01501000	-18.94685000
0.46666681	0.95533960	-51.38410000	-18.98991000
0.66666680	0.47736220	-51.34719000	-19.32210000
0.86666679	-0.31803640	-51.38410000	-19.69119000
1.06666678	-1.27399100	-50.97194000	-19.32210000
1.26666677	-2.22994600	-50.63976000	-18.98991000
1.46666675	-2.70792300	-50.59670000	-18.94685000
1.66666674	-2.54859700	-50.59670000	-18.94685000
1.86666673	-1.59264300	-50.59670000	-18.94685000
2.06666672	0.15871060	-50.59670000	-18.94685000
2.26666671	2.07062000	-50.63976000	-18.94685000
2.46666669	4.14124000	-50.97194000	-18.94685000
2.66666668	5.25652100	-51.34104000	-18.94685000
2.86666667	5.09719500	-50.97194000	-18.98991000
3.06666666	3.50393700	-50.63976000	-19.36516000
3.26666665	0.63668800	-50.63976000	-20.06029000
3.46666663	-2.70792300	-50.97194000	-20.06029000
3.66666662	-5.73449800	-51.34104000	-19.36516000
3.86666661	-7.64579200	-50.97194000	-18.98991000
4.06666660	-7.80511800	-50.63976000	-18.94685000
4.26666659	-5.73449800	-50.59670000	-18.94685000
4.46666658	-2.22994600	-50.59670000	-18.94685000
4.66666656	2.22994600	-50.59670000	-18.94685000
4.86666655	6.37180100	-50.59670000	-18.94685000
5.06666654	8.92039900	-50.59670000	-18.94685000
5.26666653	9.39837600	-50.63976000	-18.98991000
5.46666652	7.48646600	-50.97194000	-19.36516000
5.66666650	3.50393700	-51.34104000	-20.10950000
5.86666649	-1.27399100	-50.97194000	-20.43553000
6.06666648	-5.73449800	-50.63976000	-20.10950000
6.26666647	-8.76107300	-50.59670000	-19.36516000
6.46666646	-9.55770200	-50.59670000	-18.98991000
6.66666644	-7.96444400	-50.59670000	-18.94685000
6.86666643	-4.45989200	-50.59670000	-18.94685000
7.06666642	0.00000000	-50.59670000	-18.94685000
7.26666641	3.98191400	-50.59670000	-18.94685000
7.46666640	6.84916400	-50.59670000	-18.94685000
7.66666639	7.80511800	-50.59670000	-18.94685000
7.86666637	6.69045300	-50.59670000	-18.98991000
8.06666636	4.14124000	-50.63976000	-19.36516000
8.26666635	0.95533960	-51.01501000	-20.10950000
8.46666634	-2.07062000	-51.71013000	-20.43553000
8.66666633	-4.30056600	-51.71013000	-20.10950000
8.86666631	-5.25652100	-51.01501000	-19.36516000
9.06666630	-4.61921700	-50.68897000	-18.98991000
9.26666629	-3.18590100	-50.97194000	-18.94685000
9.46666628	-1.11466500	-51.34104000	-18.94685000
9.66666627	0.63668800	-50.97194000	-18.94685000
9.86666625	1.91129400	-50.63976000	-18.94685000
10.06666624	2.54859700	-50.59670000	-18.94685000
10.26666623	2.38927200	-50.59670000	-18.94685000
10.46666622	1.75196900	-50.59670000	-18.94685000
10.66666621	0.79601380	-50.59670000	-18.94685000
10.86666620	0.00000000	-50.59670000	-18.90379000
11.06666618	-0.63668800	-50.59670000	-18.57160000
11.26666617	-0.95533960	-50.59670000	-18.20251000
11.46666616	-0.95533960	-50.59670000	-18.57160000
11.66666615	-0.79601380	-50.59670000	-18.90379000
11.86666614	-0.47736220	-50.59670000	-18.94685000
12.06666612	-0.15871060	-50.59670000	-18.94685000
12.26666611	-0.15871060	-50.59670000	-18.94685000
12.46666610	0.00000000	-50.59670000	-18.94685000
12.66666609	0.00000000	-50.59670000	-18.94685000
12.86666608	0.00000000	-50.59670000	-18.94685000
13.06666606	0.00000000	-50.59670000	-18.94685000
13.26666605	0.00000000	-50.59670000	-18.94685000
13.46666604	0.00000000	-50.59670000	-18.94685000
13.66666603	0.00000000	-50.59670000	-18.94685000
13.86666602	0.00000000	-50.59670000	-18.94685000
14.06666601	0.00000000	-50.59670000	-18.94685000
14.26666599	-0.15871060	-50.63976000	-18.94685000
14.46666598	-0.15871060	-50.97194000	-18.94685000
14.66666597	0.00000000	-51.34104000	-18.94685000
14.86666596	0.00000000	-50.97194000	-18.94685000
15.06666595	0.00000000	-50.63976000	-18.94685000
15.26666593	0.00000000	-50.59670000	-18.94685000
15.46666592	0.00000000	-50.59670000	-18.94685000
15.66666591	0.00000000	-50.59670000	-18.94685000
15.86666590	0.00000000	-50.59670000	-18.94685000
16.06666589	0.00000000	-50.59670000	-18.94685000
16.26666587	0.00000000	-50.59670000	-18.94685000
16.46666586	-0.15871060	-50.59670000	-18.94685000
16.66666585	-0.15871060	-50.55364000	-18.94685000
16.86666584	0.00000000	-50.17839000	-18.94685000
17.06666583	0.00000000	-49.43405000	-18.94685000
17.26666582	0.00000000	-49.05881000	-18.94685000
17.46666580	0.00000000	-49.01575000	-18.94685000
17.66666579	0.00000000	-49.05881000	-18.94685000
17.86666578	0.00000000	-49.48326000	-18.94685000
18.06666577	0.00000000	-50.59670000	-18.94685000
18.26666576	0.00000000	-51.75935000	-18.94685000
18.46666574	0.00000000	-52.59596000	-18.94685000
18.66666573	0.00000000	-53.80167000	-18.94685000
18.86666572	0.00000000	-55.24729000	-18.94685000
19.06666571	0.00000000	-55.99163000	-18.94685000
19.26666570	0.00000000	-55.20423000	-18.94685000
19.46666568	0.00000000	-53.20496000	-18.94685000
19.66666567	0.00000000	-49.71087000	-18.94685000
19.86666566	0.00000000	-45.15871000	-18.94685000
20.06666565	0.00000000	-41.66461000	-18.94685000
20.26666564	0.00000000	-39.70842000	-18.94685000
20.46666563	0.00000000	-39.43159000	-18.94685000
20.66666561	0.00000000	-42.21825000	-18.94685000
20.86666560	0.00000000	-47.98843000	-18.94685000
21.06666559	0.00000000	-55.33957000	-18.94685000
21.26666558	0.00000000	-62.69069000	-18.94685000
21.46666557	0.00000000	-68.46087000	-18.94685000
21.66666555	0.00000000	-71.11835000	-18.94685000
21.86666554	0.00000000	-69.44512000	-18.94685000
22.06666553	0.00000000	-62.83218000	-18.94685000
22.26666552	0.00000000	-51.99926000	-18.94685000
22.46666551	0.00000000	-39.61614000	-18.94685000
22.66666549	0.00000000	-28.03272000	-18.94685000
22.86666548	0.00000000	-20.02953000	-18.94685000
23.06666547	0.00000000	-18.58391000	-18.90379000
23.26666546	0.00000000	-24.81545000	-18.52854000
23.46666545	0.00000000	-37.98597000	-17.78420000
23.66666544	0.00000000	-55.38877000	-17.40895000
23.86666542	0.00000000	-73.11761000	-17.36589000
24.06666541	0.00000000	-86.97711000	-17.40895000
24.26666540	0.00000000	-93.07948000	-17.78420000
24.46666539	0.00000000	-89.58538000	-18.57160000
24.66666538	0.00000000	-76.75320000	-19.36516000
24.86666536	0.00000000	-57.01894000	-20.57087000
25.06666535	0.00000000	-34.26427000	-22.10261000
25.26666534	0.00000000	-14.25935000	-23.59129000
25.46666533	0.00000000	-2.25762800	-24.33563000
25.66666532	0.00000000	-0.76279520	-23.50517000
25.86666530	0.00000000	-10.48843000	-21.22293000
26.06666529	0.00000000	-30.16732000	-17.74114000
26.26666528	0.00000000	-54.82898000	-14.21014000
26.46666527	0.00000000	-78.46333000	-10.72219000
26.66666526	0.00000000	-96.24138000	-7.70177100
26.86666525	0.00000000	-104.29380000	-7.04355200
27.06666523	0.00000000	-100.01230000	-9.37500000
27.26666522	0.00000000	-84.23965000	-14.80684000
27.46666521	0.00000000	-61.06668000	-22.10261000
27.66666520	0.00000000	-35.98671000	-29.49065000
27.86666519	0.00000000	-14.72687000	-35.67298000
28.06666517	0.00000000	-2.30068900	-39.43774000
28.26666516	0.00000000	-0.67667320	-38.92716000
28.46666515	0.00000000	-9.60875900	-33.12008000
28.66666514	0.00000000	-27.33760000	-23.08686000
28.86666513	0.00000000	-49.71087000	-11.14050000
29.06666511	0.00000000	-70.98302000	0.09842519
29.26666510	0.00000000	-86.89099000	8.13853400
29.46666509	0.00000000	-94.28519000	11.20202000
29.66666508	0.00000000	-92.00910000	7.63410400
29.86666507	0.00000000	-81.20693000	-2.03617100
30.06666506	0.00000000	-64.22859000	-16.33858000
30.26666504	0.00000000	-45.28789000	-32.13582000
30.46666503	0.00000000	-28.67864000	-45.66314000
30.66666502	0.00000000	-17.75344000	-54.16461000
30.86666501	0.00000000	-14.62844000	-55.65329000
31.06666500	0.00000000	-18.77460000	-49.42790000
31.26666498	0.00000000	-29.23843000	-36.27584000
31.46666497	0.00000000	-43.15329000	-18.90379000
31.66666496	0.00000000	-57.85556000	-1.15649600
31.86666495	0.00000000	-70.23253000	13.15207000
32.06666494	0.00000000	-77.26378000	20.82308000
32.26666492	0.00000000	-78.46948000	20.07259000
32.46666491	0.00000000	-73.81274000	10.78986000
32.66666490	0.00000000	-64.18552000	-4.59522600
32.86666489	0.00000000	-52.26993000	-22.80389000
33.06666488	0.00000000	-41.01255000	-39.81299000
33.26666487	0.00000000	-32.86171000	-52.58366000
33.46666485	0.00000000	-28.96161000	-58.34768000
33.66666484	0.00000000	-30.12426000	-55.65329000
33.86666483	0.00000000	-35.89444000	-45.24483000
34.06666482	0.00000000	-44.74040000	-29.44759000
34.26666481	0.00000000	-54.31840000	-12.06939000
34.46666479	0.00000000	-61.66953000	3.03272600
34.66666478	0.00000000	-65.20669000	13.10900000
34.86666477	0.00000000	-64.87450000	16.17864000
35.06666476	0.00000000	-61.01746000	11.57726000
35.26666475	0.00000000	-54.87204000	0.42445860
35.46666473	0.00000000	-47.94537000	-14.21014000
35.66666472	0.00000000	-42.21825000	-28.93701000
35.86666471	0.00000000	-39.48080000	-40.88336000
36.06666470	0.00000000	-40.21899000	-47.42864000
36.26666469	0.00000000	-43.62082000	-46.69045000
36.46666468	0.00000000	-48.68356000	-39.43774000
36.66666466	0.00000000	-54.04158000	-27.90969000
36.86666465	0.00000000	-58.64296000	-15.18209000
37.06666464	0.00000000	-60.55610000	-4.44143700
37.26666463	0.00000000	-59.43651000	1.72859200
37.46666462	0.00000000	-55.99163000	1.40871000
37.66666460	0.00000000	-51.01501000	-4.26304100
37.86666459	0.00000000	-46.36442000	-13.13976000
38.06666458	0.00000000	-42.82726000	-23.12992000
38.26666457	0.00000000	-40.55118000	-31.53912000
38.46666456	0.00000000	-40.59424000	-35.72219000
38.66666454	0.00000000	-43.24557000	-34.23351000
38.86666453	0.00000000	-47.47785000	-27.73130000
39.06666452	0.00000000	-52.13459000	-18.57160000
39.26666451	0.00000000	-56.36687000	-9.37500000
39.46666450	0.00000000	-59.11048000	-3.28494100
39.66666449	0.00000000	-59.90403000	-2.12229300
39.86666447	0.00000000	-59.15354000	-6.35457700
40.06666446	0.00000000	-56.78519000	-14.76378000
40.26666445	0.00000000	-53.34030000	-24.71087000
40.46666444	0.00000000	-49.43405000	-33.16314000
40.66666443	0.00000000	-45.94611000	-37.77067000
40.86666441	0.00000000	-43.20251000	-37.39542000
41.06666440	0.00000000	-41.66461000	-32.00664000
41.26666439	0.00000000	-41.66461000	-23.17298000
41.46666438	0.00000000	-43.20251000	-13.18282000
41.66666437	0.00000000	-45.94611000	-4.73056000
41.86666435	0.00000000	-49.39099000	-0.12918310
42.06666434	0.00000000	-52.92200000	-0.46136810
42.26666433	0.00000000	-55.62254000	-5.42568800
42.46666432	0.00000000	-57.57259000	-13.13976000
42.66666431	0.00000000	-57.94783000	-22.01033000
42.86666430	0.00000000	-56.87746000	-30.05044000
43.06666428	0.00000000	-55.24729000	-34.65182000
43.26666427	0.00000000	-52.92200000	-34.74409000
43.46666426	0.00000000	-49.90157000	-30.93627000
43.66666425	0.00000000	-47.94537000	-24.79700000
43.86666424	0.00000000	-47.05954000	-17.87647000
44.06666422	0.00000000	-46.27214000	-12.06939000
44.26666421	0.00000000	-45.94611000	-8.58144600
44.46666420	0.00000000	-46.27214000	-7.75098400
44.66666419	0.00000000	-47.01648000	-9.65182000
44.86666418	0.00000000	-47.39173000	-13.09670000
45.06666416	0.00000000	-47.47785000	-17.36589000
45.26666415	0.00000000	-47.90231000	-21.59203000
45.46666414	0.00000000	-49.10802000	-24.71087000
45.66666413	0.00000000	-51.06422000	-26.24262000
45.86666412	0.00000000	-53.80167000	-25.91043000
46.06666411	0.00000000	-56.87746000	-23.96653000
46.26666409	0.00000000	-59.48573000	-21.30905000
46.46666408	0.00000000	-60.26698000	-18.20251000
46.66666407	0.00000000	-58.69832000	-15.87721000
46.86666406	0.00000000	-55.57332000	-14.29626000
47.06666405	0.00000000	-50.46136000	-13.55807000
47.26666403	0.00000000	-44.31594000	-14.29626000
47.46666402	0.00000000	-38.54576000	-15.83415000
47.66666401	0.00000000	-34.73179000	-17.83341000
47.86666400	0.00000000	-34.35654000	-20.52780000
48.06666399	0.00000000	-37.47539000	-23.17298000
48.26666397	0.00000000	-43.71309000	-24.71087000
48.46666396	0.00000000	-52.17765000	-24.71087000
48.66666395	0.00000000	-60.64837000	-23.17298000
48.86666394	0.00000000	-66.83685000	-20.47859000
49.06666393	0.00000000	-69.49433000	-17.36589000
49.26666392	0.00000000	-67.53198000	-14.25320000
49.46666390	0.00000000	-60.97440000	-11.60187000
49.66666389	0.00000000	-51.75935000	-10.48843000
49.86666388	0.00000000	-42.08292000	-11.60187000
50.06666387	0.00000000	-34.35654000	-14.29626000
50.26666386	0.00000000	-30.16732000	-17.78420000
50.46666384	0.00000000	-30.96087000	-21.64124000
50.66666383	0.00000000	-37.05708000	-24.71087000
50.86666382	0.00000000	-45.85384000	-26.28568000
51.06666381	0.00000000	-54.78592000	-26.24262000
51.26666380	0.00000000	-62.13705000	-24.29257000
51.46666379	0.00000000	-66.32628000	-20.47859000
51.66666377	0.00000000	-65.95103000	-16.25246000
51.86666376	0.00000000	-61.02362000	-12.76452000
52.06666375	0.00000000	-53.71555000	-10.44537000
52.26666374	0.00000000	-45.98917000	-10.07013000
52.46666373	0.00000000	-39.43159000	-11.60187000
52.66666371	0.00000000	-36.02977000	-14.72072000
52.86666370	0.00000000	-36.78026000	-18.90379000
53.06666369	0.00000000	-41.75689000	-22.75467000
53.26666368	0.00000000	-48.97269000	-25.08612000
53.46666367	0.00000000	-55.89936000	-25.86737000
53.66666365	0.00000000	-60.55610000	-24.71087000
53.86666364	0.00000000	-62.13705000	-22.05955000
54.06666363	0.00000000	-60.55610000	-19.03297000
54.26666362	0.00000000	-55.94857000	-16.67077000
54.46666361	0.00000000	-49.48326000	-15.50197000
54.66666360	0.00000000	-43.71309000	-15.13902000
54.86666358	0.00000000	-40.21899000	-16.29552000
55.06666357	0.00000000	-39.43159000	-18.52854000
55.26666356	0.00000000	-41.75689000	-20.43553000
55.46666355	0.00000000	-46.32135000	-21.54897000
55.66666354	0.00000000	-51.71013000	-21.17372000
55.86666352	0.00000000	-56.32381000	-19.32210000
56.06666351	0.00000000	-59.06127000	-17.36589000
56.26666350	0.00000000	-59.43651000	-15.45891000
56.46666349	0.00000000	-57.48031000	-13.97638000
56.66666348	0.00000000	-53.29109000	-14.43159000
56.86666346	0.00000000	-48.32062000	-16.71383000
57.06666345	0.00000000	-44.45127000	-20.57087000
57.26666344	0.00000000	-42.08292000	-24.71087000
57.46666343	0.00000000	-41.75689000	-27.40526000
57.66666342	0.00000000	-43.62082000	-27.77436000
57.86666341	0.00000000	-47.05954000	-25.86737000
58.06666339	0.00000000	-50.50443000	-21.96727000
58.26666338	0.00000000	-53.24803000	-16.94759000
58.46666337	0.00000000	-54.82898000	-11.55881000
58.66666336	0.00000000	-55.20423000	-7.37573800
58.86666335	0.00000000	-54.41068000	-5.88705700
59.06666333	0.00000000	-52.13459000	-7.79404500
59.26666332	0.00000000	-49.48326000	-12.80758000
59.46666331	0.00000000	-47.52707000	-19.32210000
59.66666330	0.00000000	-46.36442000	-25.91043000
59.86666329	0.00000000	-46.36442000	-30.88705000
60.06666327	0.00000000	-47.47785000	-33.16314000
60.26666326	0.00000000	-48.97269000	-31.63140000
60.46666325	0.00000000	-50.12918000	-26.61786000
60.66666324	0.00000000	-50.55364000	-19.64198000
60.86666323	0.00000000	-50.55364000	-11.60187000
61.06666322	0.00000000	-50.17839000	-5.09965500
61.26666320	0.00000000	-49.39099000	-2.35605300
61.46666319	0.00000000	-48.64050000	-3.10039400
61.66666318	0.00000000	-47.90231000	-7.41879900
61.86666317	0.00000000	-47.94537000	-14.72072000
62.06666316	0.00000000	-49.01575000	-23.17298000
62.26666314	0.00000000	-50.17839000	-30.46875000
62.46666313	0.00000000	-51.01501000	-34.69488000
62.66666312	0.00000000	-52.13459000	-34.74409000
62.86666311	0.00000000	-52.87278000	-30.88705000
63.06666310	0.00000000	-52.46062000	-24.33563000
63.26666308	0.00000000	-51.34104000	-16.25246000
63.46666307	0.00000000	-49.39099000	-8.95669300
63.66666306	0.00000000	-47.52707000	-4.30610200
63.86666305	0.00000000	-46.32135000	-3.10039400
64.06666304	0.00000000	-45.94611000	-5.42568800
64.26666303	0.00000000	-46.32135000	-10.40231000
64.46666301	0.00000000	-47.52707000	-16.94759000
64.66666300	0.00000000	-49.39099000	-23.12992000
64.86666299	0.00000000	-51.34104000	-27.82357000
65.06666298	0.00000000	-52.50984000	-30.51181000
65.26666297	0.00000000	-53.29109000	-30.56102000
65.46666295	0.00000000	-53.20496000	-28.28494000
65.66666294	0.00000000	-51.71013000	-24.79700000
65.86666293	0.00000000	-49.43405000	-20.52780000
66.06666292	0.00000000	-47.57013000	-16.29552000
66.26666291	0.00000000	-46.78272000	-13.13976000
66.46666289	0.00000000	-47.52707000	-11.18356000
66.66666288	0.00000000	-49.01575000	-10.40231000
66.86666287	0.00000000	-50.59670000	-11.14050000
67.06666286	0.00000000	-52.13459000	-12.67224000
67.26666285	0.00000000	-53.24803000	-14.67150000
67.46666284	0.00000000	-53.20496000	-17.41511000
67.66666282	0.00000000	-51.66707000	-20.52780000
67.86666281	0.00000000	-49.01575000	-23.64050000
68.06666280	0.00000000	-46.32135000	-26.32874000
68.26666279	0.00000000	-44.40821000	-27.86663000
68.46666278	0.00000000	-43.66388000	-27.86663000
68.66666276	0.00000000	-44.82652000	-26.32874000
68.86666275	0.00000000	-47.52707000	-23.59129000
69.06666274	0.00000000	-51.01501000	-20.06029000
69.26666273	0.00000000	-54.87204000	-15.74188000
69.46666272	0.00000000	-57.94783000	-11.18356000
69.66666270	0.00000000	-59.43651000	-7.75098400
69.86666269	0.00000000	-58.59990000	-7.00049200
70.06666268	0.00000000	-54.78592000	-8.86441900
70.26666267	0.00000000	-49.43405000	-12.76452000
70.46666266	0.00000000	-44.36515000	-17.78420000
70.66666265	0.00000000	-40.08366000	-23.21604000
70.86666263	0.00000000	-37.43233000	-27.77436000
71.06666262	0.00000000	-37.47539000	-30.14272000
71.26666261	0.00000000	-40.59424000	-29.77362000
71.46666260	0.00000000	-46.36442000	-27.44832000
71.66666259	0.00000000	-53.24803000	-23.17298000
71.86666257	0.00000000	-59.06127000	-17.83341000
72.06666256	0.00000000	-62.55536000	-13.22589000
72.26666255	0.00000000	-63.34276000	-10.48843000
72.46666254	0.00000000	-61.01746000	-10.07013000
72.66666253	0.00000000	-56.40993000	-11.55881000
72.86666251	0.00000000	-50.59670000	-14.25320000
73.06666250	0.00000000	-44.78346000	-17.32283000
73.26666249	0.00000000	-40.12672000	-20.01722000
73.46666248	0.00000000	-37.43233000	-21.59203000
73.66666247	0.00000000	-37.47539000	-21.96727000
73.86666246	0.00000000	-40.55118000	-21.22293000
74.06666244	0.00000000	-45.89690000	-19.36516000
74.26666243	0.00000000	-51.66707000	-17.87647000
74.46666242	0.00000000	-56.32381000	-17.45817000
74.66666241	0.00000000	-59.01821000	-17.83341000
74.86666240	0.00000000	-59.06127000	-18.98991000
75.06666238	0.00000000	-56.82825000	-20.52780000
75.26666237	0.00000000	-53.71555000	-22.01649000
75.46666236	0.00000000	-50.22145000	-22.71161000
75.66666235	0.00000000	-46.73966000	-21.54897000
75.86666234	0.00000000	-44.45127000	-18.85458000
76.06666232	0.00000000	-43.62082000	-15.40969000
76.26666231	0.00000000	-44.36515000	-11.97711000
76.46666230	0.00000000	-45.85384000	-10.11319000
76.66666229	0.00000000	-47.43479000	-10.44537000
76.86666228	0.00000000	-48.97269000	-12.80758000
77.06666227	0.00000000	-50.12918000	-16.67077000
77.26666225	0.00000000	-50.55364000	-21.68430000
77.46666224	0.00000000	-50.59670000	-26.24262000
77.66666223	0.00000000	-50.55364000	-28.98007000
77.86666222	0.00000000	-50.22145000	-29.35531000
78.06666221	0.00000000	-49.90157000	-27.44832000
78.26666219	0.00000000	-50.59670000	-23.50517000
78.46666218	0.00000000	-51.29183000	-18.15330000
78.66666217	0.00000000	-51.01501000	-12.35236000
78.86666216	0.00000000	-50.97194000	-8.16313900
79.06666215	0.00000000	-50.87352000	-6.17002900
79.26666213	0.00000000	-49.34793000	-7.00049200
79.46666212	0.00000000	-47.47785000	-10.40231000
79.66666211	0.00000000	-45.89690000	-15.41585000
79.86666210	0.00000000	-44.78346000	-20.47859000
80.06666209	0.00000000	-44.78346000	-25.12918000
80.26666208	0.00000000	-45.94611000	-28.56176000
80.46666206	0.00000000	-47.94537000	-29.35531000
80.66666205	0.00000000	-50.97194000	-27.86663000
80.86666204	0.00000000	-53.99237000	-24.79700000
81.06666203	0.00000000	-55.16117000	-20.94611000
81.26666202	0.00000000	-54.87204000	-17.41511000
81.46666200	0.00000000	-53.62328000	-14.25320000
81.66666199	0.00000000	-51.34104000	-11.60187000
81.86666198	0.00000000	-48.22834000	-10.44537000
82.06666197	0.00000000	-45.57086000	-11.14050000
82.26666196	0.00000000	-43.62082000	-12.67224000
82.46666194	0.00000000	-43.28863000	-14.67150000
82.66666193	0.00000000	-44.74040000	-17.36589000
82.86666192	0.00000000	-47.05954000	-20.10950000
83.06666191	0.00000000	-49.34793000	-22.47785000
83.26666190	0.00000000	-51.34104000	-24.79700000
83.46666189	0.00000000	-52.46062000	-26.28568000
83.66666187	0.00000000	-52.92200000	-26.32874000
83.86666186	0.00000000	-52.50984000	-25.12918000
84.06666185	0.00000000	-51.75935000	-22.75467000
84.26666184	0.00000000	-50.55364000	-18.90379000
84.46666183	0.00000000	-49.05881000	-14.72072000
84.66666181	0.00000000	-47.94537000	-11.55881000
84.86666180	0.00000000	-47.90231000	-9.60875900
85.06666179	0.00000000	-48.59744000	-8.86441900
85.26666178	0.00000000	-48.97269000	-10.11319000
85.46666177	0.00000000	-49.01575000	-13.55807000
85.66666175	0.00000000	-48.97269000	-18.52854000
85.86666174	0.00000000	-48.59744000	-23.17298000
86.06666173	0.00000000	-47.85310000	-26.66092000
86.26666172	0.00000000	-47.52707000	-28.65403000
86.46666171	0.00000000	-47.90231000	-28.56791000
86.66666170	0.00000000	-49.05881000	-26.60556000
86.86666168	0.00000000	-50.55364000	-21.96727000
87.06666167	0.00000000	-51.71013000	-16.29552000
87.26666166	0.00000000	-52.13459000	-11.64493000
87.46666165	0.00000000	-52.13459000	-8.90747900
87.66666164	0.00000000	-51.71013000	-8.53838500
87.86666162	0.00000000	-50.55364000	-10.44537000
88.06666161	0.00000000	-49.01575000	-14.30241000
88.26666160	0.00000000	-47.47785000	-18.90379000
88.46666159	0.00000000	-46.32135000	-23.17298000
88.66666158	0.00000000	-45.94611000	-26.24262000
88.86666156	0.00000000	-46.32135000	-27.35605000
89.06666155	0.00000000	-47.47785000	-25.82431000
89.26666154	0.00000000	-49.01575000	-22.01033000
89.46666153	0.00000000	-50.55364000	-17.40895000
89.66666152	0.00000000	-51.71013000	-13.18282000
89.86666151	0.00000000	-52.08538000	-10.48843000
90.06666149	0.00000000	-51.71013000	-10.07013000
90.26666148	0.00000000	-50.55364000	-11.65108000
90.46666147	0.00000000	-49.05881000	-15.13902000
90.66666146	0.00000000	-47.90231000	-20.06029000
90.86666145	0.00000000	-47.47785000	-24.24335000
91.06666143	0.00000000	-47.43479000	-26.24262000
91.26666142	0.00000000	-47.47785000	-26.28568000
91.46666141	0.00000000	-47.85310000	-24.66166000
91.66666140	0.00000000	-48.59744000	-21.17372000
91.86666139	0.00000000	-48.97269000	-16.25246000
92.06666137	0.00000000	-49.01575000	-12.06939000
92.26666136	0.00000000	-49.01575000	-10.07013000
92.46666135	0.00000000	-49.01575000	-10.07013000
92.66666134	0.00000000	-49.05881000	-12.02018000
92.86666133	0.00000000	-49.43405000	-15.87721000
93.06666132	0.00000000	-50.22145000	-20.47859000
93.26666130	0.00000000	-50.97194000	-24.66781000
93.46666129	0.00000000	-51.71013000	-26.93774000
93.66666128	0.00000000	-51.71013000	-26.24262000
93.86666127	0.00000000	-50.97194000	-23.59129000
94.06666126	0.00000000	-50.12918000	-20.06029000
94.26666124	0.00000000	-48.54823000	-15.83415000
94.46666123	0.00000000	-46.32135000	-12.06939000
94.66666122	0.00000000	-44.74040000	-10.53150000
94.86666121	0.00000000	-43.94069000	-11.60187000
95.06666120	0.00000000	-43.62082000	-14.29626000
95.26666118	0.00000000	-44.82652000	-17.78420000
95.46666117	0.00000000	-47.47785000	-21.59203000
95.66666116	0.00000000	-50.59670000	-24.29257000
95.86666115	0.00000000	-53.66634000	-25.08612000
96.06666114	0.00000000	-55.94857000	-24.29257000
96.26666113	0.00000000	-56.36687000	-21.64124000
96.46666111	0.00000000	-55.20423000	-18.20251000
96.66666110	0.00000000	-52.87278000	-15.50197000
96.86666109	0.00000000	-49.34793000	-13.55807000
97.06666108	0.00000000	-45.52165000	-13.18282000
97.26666107	0.00000000	-42.03986000	-14.29626000
97.46666105	0.00000000	-40.17593000	-16.20325000
97.66666104	0.00000000	-40.50196000	-18.52854000
97.86666103	0.00000000	-42.82726000	-20.43553000
98.06666102	0.00000000	-46.27214000	-21.64124000
98.26666101	0.00000000	-50.17839000	-22.01033000
98.46666099	0.00000000	-53.66634000	-21.64124000
98.66666098	0.00000000	-56.36687000	-20.47859000
98.86666097	0.00000000	-57.52953000	-18.98991000
99.06666096	0.00000000	-56.74212000	-17.83341000
99.26666095	0.00000000	-54.45374000	-17.40895000
99.46666094	0.00000000	-50.97194000	-17.36589000
99.66666092	0.00000000	-47.47785000	-17.36589000
99.86666091	0.00000000	-44.36515000	-17.36589000
100.06666090	0.00000000	-42.03986000	-17.32283000
100.26666089	0.00000000	-41.28937000	-16.94759000
100.46666088	0.00000000	-42.03986000	-16.20325000
100.66666086	0.00000000	-44.36515000	-15.87721000
100.86666085	0.00000000	-47.43479000	-16.25246000
101.06666084	0.00000000	-50.55364000	-17.40895000
101.26666083	0.00000000	-53.20496000	-18.94685000
101.46666082	0.00000000	-54.41068000	-20.52780000
101.66666080	0.00000000	-54.09079000	-22.01649000
101.86666079	0.00000000	-53.38336000	-22.79773000
102.06666078	0.00000000	-52.50984000	-22.38558000
102.26666077	0.00000000	-51.29183000	-21.22293000
102.46666076	0.00000000	-48.97269000	-18.85458000
102.66666075	0.00000000	-46.36442000	-15.83415000
102.86666073	0.00000000	-44.78346000	-13.13976000
103.06666072	0.00000000	-44.36515000	-11.64493000
103.26666071	0.00000000	-44.74040000	-12.02018000
103.46666070	0.00000000	-45.89690000	-14.29626000
103.66666069	0.00000000	-47.47785000	-17.36589000
103.86666067	0.00000000	-49.39099000	-20.47859000
104.06666066	0.00000000	-51.29183000	-23.17298000
104.26666065	0.00000000	-52.08538000	-24.71087000
104.46666064	0.00000000	-52.17765000	-24.71087000
104.66666063	0.00000000	-52.13459000	-23.17298000
104.86666061	0.00000000	-51.66707000	-20.47859000
105.06666060	0.00000000	-50.17839000	-17.41511000
105.26666059	0.00000000	-48.27140000	-14.72072000
105.46666058	0.00000000	-47.10260000	-13.18282000
105.66666057	0.00000000	-46.32135000	-13.13976000
105.86666056	0.00000000	-46.36442000	-14.29626000
106.06666054	0.00000000	-47.43479000	-16.20325000
106.26666053	0.00000000	-48.59744000	-18.52854000
106.46666052	0.00000000	-49.39099000	-20.43553000
106.66666051	0.00000000	-50.17839000	-21.59203000
106.86666050	0.00000000	-50.50443000	-21.59203000
107.06666048	0.00000000	-50.12918000	-20.47859000
107.26666047	0.00000000	-49.01575000	-18.94685000
107.46666046	0.00000000	-47.90231000	-17.36589000
107.66666045	0.00000000	-47.47785000	-15.87721000
107.86666044	0.00000000	-47.47785000	-15.13902000
108.06666042	0.00000000	-47.85310000	-15.87721000
108.26666041	0.00000000	-48.64050000	-17.36589000
108.46666040	0.00000000	-49.43405000	-18.90379000
108.66666039	0.00000000	-50.55364000	-20.10950000
108.86666038	0.00000000	-51.29183000	-20.85384000
109.06666037	0.00000000	-50.92888000	-21.22293000
109.26666035	0.00000000	-50.17839000	-20.47859000
109.46666034	0.00000000	-49.01575000	-19.32210000
109.66666033	0.00000000	-47.85310000	-18.15330000
109.86666032	0.00000000	-47.05954000	-16.62155000
110.06666031	0.00000000	-46.32135000	-15.87721000
110.26666029	0.00000000	-46.32135000	-15.82800000
110.46666028	0.00000000	-47.05954000	-16.25246000
110.66666027	0.00000000	-47.90231000	-17.40895000
110.86666026	0.00000000	-49.39099000	-18.90379000
111.06666025	0.00000000	-50.87352000	-20.06029000
111.26666023	0.00000000	-50.92888000	-20.48474000
111.46666022	0.00000000	-50.59670000	-20.52780000
111.66666021	0.00000000	-50.17839000	-20.48474000
111.86666020	0.00000000	-49.39099000	-20.06029000
112.06666019	0.00000000	-48.64050000	-18.94685000
112.26666018	0.00000000	-47.85310000	-17.78420000
112.46666016	0.00000000	-47.47785000	-16.99065000
112.66666015	0.00000000	-47.43479000	-16.20325000
112.86666014	0.00000000	-47.47785000	-15.87721000
113.06666013	0.00000000	-47.85310000	-16.20325000
113.26666012	0.00000000	-48.59744000	-16.94759000
113.46666010	0.00000000	-48.97269000	-17.36589000
113.66666009	0.00000000	-49.01575000	-17.78420000
113.86666008	0.00000000	-49.01575000	-18.52854000
114.06666007	0.00000000	-49.01575000	-18.90379000
114.26666006	0.00000000	-49.01575000	-18.94685000
114.46666004	0.00000000	-49.01575000	-18.94685000
114.66666003	0.00000000	-48.97269000	-18.94685000
114.86666002	0.00000000	-48.59744000	-18.94685000
115.06666001	0.00000000	-47.85310000	-18.94685000
115.26666000	0.00000000	-47.47785000	-18.94685000
115.46665999	0.00000000	-47.43479000	-18.90379000
115.66665997	0.00000000	-47.47785000	-18.52854000
115.86665996	0.00000000	-47.85310000	-17.74114000
116.06665995	0.00000000	-48.59744000	-16.99065000
116.26665994	0.00000000	-48.97269000	-16.20325000
116.46665993	0.00000000	-49.01575000	-15.82800000
116.66665991	0.00000000	-49.01575000	-15.82800000
116.86665990	0.00000000	-49.01575000	-16.20325000
117.06665989	0.00000000	-49.01575000	-16.99065000
117.26665988	0.00000000	-48.97269000	-17.78420000
117.46665987	0.00000000	-48.59744000	-18.94685000
117.66665985	0.00000000	-47.81004000	-20.06029000
117.86665984	0.00000000	-47.10260000	-20.48474000
118.06665983	0.00000000	-46.69045000	-20.52780000
118.26665982	0.00000000	-47.10260000	-20.48474000
118.46665981	0.00000000	-47.81004000	-20.06029000
118.66665980	0.00000000	-48.64050000	-18.94685000
118.86665978	0.00000000	-49.39099000	-17.78420000
119.06665977	0.00000000	-50.22145000	-16.99065000
119.26665976	0.00000000	-50.92888000	-16.20325000
119.46665975	0.00000000	-51.34104000	-15.87721000
119.66665974	0.00000000	-50.92888000	-16.20325000
119.86665972	0.00000000	-50.17839000	-16.94759000
120.06665971	0.00000000	-48.97269000	-17.36589000
120.26665970	0.00000000	-47.47785000	-17.78420000
120.46665969	0.00000000	-46.32135000	-18.52854000
120.66665968	0.00000000	-45.89690000	-18.90379000
120.86665966	0.00000000	-45.89690000	-18.94685000
121.06665965	0.00000000	-46.32135000	-18.94685000
121.26665964	0.00000000	-47.43479000	-18.94685000
121.46665963	0.00000000	-48.59744000	-18.94685000
121.66665962	0.00000000	-49.43405000	-18.94685000
121.86665961	0.00000000	-50.59670000	-18.90379000
122.06665959	0.00000000	-51.66707000	-18.52854000
122.26665958	0.00000000	-51.71013000	-17.78420000
122.46665957	0.00000000	-50.97194000	-17.40895000
122.66665956	0.00000000	-50.17839000	-17.36589000
122.86665955	0.00000000	-48.97269000	-17.32283000
123.06665953	0.00000000	-47.47785000	-16.99065000
123.26665952	0.00000000	-46.32135000	-16.62155000
123.46665951	0.00000000	-45.89690000	-16.99065000
123.66665950	0.00000000	-45.85384000	-17.32283000
123.86665949	0.00000000	-45.89690000	-17.40895000
124.06665947	0.00000000	-46.27214000	-17.78420000
124.26665946	0.00000000	-47.05954000	-18.52854000
124.46665945	0.00000000	-47.81004000	-18.90379000
124.66665944	0.00000000	-48.64050000	-18.94685000
124.86665943	0.00000000	-49.39099000	-18.90379000
125.06665942	0.00000000	-50.17839000	-18.52854000
125.26665940	0.00000000	-50.50443000	-17.78420000
125.46665939	0.00000000	-50.17839000	-17.36589000
125.66665938	0.00000000	-49.39099000	-16.94759000
125.86665937	0.00000000	-48.64050000	-16.20325000
126.06665936	0.00000000	-47.81004000	-15.87721000
126.26665934	0.00000000	-47.05954000	-16.20325000
126.46665933	0.00000000	-46.27214000	-16.94759000
126.66665932	0.00000000	-45.94611000	-17.32283000
126.86665931	0.00000000	-46.32135000	-17.40895000
127.06665930	0.00000000	-47.43479000	-17.78420000
127.26665928	0.00000000	-48.59744000	-18.52854000
127.46665927	0.00000000	-49.39099000	-18.90379000
127.66665926	0.00000000	-50.17839000	-18.94685000
127.86665925	0.00000000	-50.50443000	-18.90379000
128.06665924	0.00000000	-50.17839000	-18.52854000
128.26665923	0.00000000	-49.39099000	-17.78420000
128.46665921	0.00000000	-48.64050000	-17.40895000
128.66665920	0.00000000	-47.81004000	-17.36589000
128.86665919	0.00000000	-47.05954000	-17.36589000
129.06665918	0.00000000	-46.27214000	-17.36589000
129.26665917	0.00000000	-45.94611000	-17.40895000
129.46665915	0.00000000	-46.32135000	-17.78420000
129.66665914	0.00000000	-47.43479000	-18.52854000
129.86665913	0.00000000	-48.59744000	-18.90379000
130.06665912	0.00000000	-49.39099000	-18.94685000
130.26665911	0.00000000	-50.17839000	-18.90379000
130.46665909	0.00000000	-50.50443000	-18.52854000
130.66665908	0.00000000	-50.12918000	-17.78420000
130.86665907	0.00000000	-49.01575000	-17.40895000
131.06665906	0.00000000	-47.90231000	-17.36589000
131.26665905	0.00000000	-47.47785000	-17.40895000
131.46665904	0.00000000	-47.43479000	-17.78420000
131.66665902	0.00000000	-47.43479000	-18.52854000
131.86665901	0.00000000	-47.47785000	-18.94685000
132.06665900	0.00000000	-47.85310000	-19.32210000
132.26665899	0.00000000	-48.59744000	-19.69119000
132.46665898	0.00000000	-49.01575000	-19.32210000
132.66665896	0.00000000	-49.39099000	-18.94685000
132.86665895	0.00000000	-49.76009000	-18.52854000
133.06665894	0.00000000	-49.34793000	-17.74114000
133.26665893	0.00000000	-48.64050000	-16.99065000
133.46665892	0.00000000	-47.85310000	-16.20325000
133.66665890	0.00000000	-47.52707000	-15.87721000
133.86665889	0.00000000	-47.85310000	-16.20325000
134.06665888	0.00000000	-48.54823000	-16.99065000
134.26665887	0.00000000	-48.59744000	-17.74114000
134.46665886	0.00000000	-48.22834000	-18.52854000
134.66665885	0.00000000	-48.22219000	-18.94685000
134.86665883	0.00000000	-47.81004000	-19.32210000
135.06665882	0.00000000	-47.47785000	-19.69119000
135.26665881	0.00000000	-47.43479000	-19.32210000
135.46665880	0.00000000	-47.43479000	-18.94685000
135.66665879	0.00000000	-47.43479000	-18.52854000
135.86665877	0.00000000	-47.47785000	-17.74114000
136.06665876	0.00000000	-47.85310000	-16.99065000
136.26665875	0.00000000	-48.59744000	-16.20325000
136.46665874	0.00000000	-48.97269000	-15.87721000
136.66665873	0.00000000	-49.01575000	-16.20325000
136.86665871	0.00000000	-48.97269000	-16.94759000
137.06665870	0.00000000	-48.59744000	-17.36589000
137.26665869	0.00000000	-47.85310000	-17.78420000
137.46665868	0.00000000	-47.47785000	-18.52854000
137.66665867	0.00000000	-47.39173000	-18.90379000
137.86665866	0.00000000	-47.01648000	-18.94685000
138.06665864	0.00000000	-46.32135000	-18.94685000
138.26665863	0.00000000	-46.32135000	-18.94685000
138.46665862	0.00000000	-47.05954000	-18.94685000
138.66665861	0.00000000	-47.81004000	-18.90379000
138.86665860	0.00000000	-48.59744000	-18.52854000
139.06665858	0.00000000	-48.97269000	-17.74114000
139.26665857	0.00000000	-49.01575000	-16.99065000
139.46665856	0.00000000	-49.01575000	-16.20325000
139.66665855	0.00000000	-48.97269000	-15.87721000
139.86665854	0.00000000	-48.59744000	-16.20325000
140.06665852	0.00000000	-47.85310000	-16.94759000
140.26665851	0.00000000	-47.47785000	-17.36589000
140.46665850	0.00000000	-47.43479000	-17.83341000
140.66665849	0.00000000	-47.43479000	-18.94685000
140.86665848	0.00000000	-47.47785000	-20.06029000
141.06665847	0.00000000	-47.85310000	-20.43553000
141.26665845	0.00000000	-48.59744000	-20.10950000
141.46665844	0.00000000	-48.97269000	-19.32210000
141.66665843	0.00000000	-48.97269000	-18.57160000
141.86665842	0.00000000	-48.59744000	-17.74114000
142.06665841	0.00000000	-47.85310000	-16.99065000
142.26665839	0.00000000	-47.47785000	-16.20325000
142.46665838	0.00000000	-47.47785000	-15.87721000
142.66665837	0.00000000	-47.76698000	-16.20325000
142.86665836	0.00000000	-47.84694000	-16.99065000
143.06665835	0.00000000	-47.49015000	-17.74114000
143.26665834	0.00000000	-48.22219000	-18.57160000
143.46665832	0.00000000	-48.54823000	-19.32210000
143.66665831	0.00000000	-48.27140000	-20.06029000
143.86665830	0.00000000	-48.59744000	-20.06029000
144.06665829	0.00000000	-48.59744000	-19.32210000
144.26665828	0.00000000	-48.22834000	-18.57160000
144.46665826	0.00000000	-48.22219000	-17.78420000
144.66665825	0.00000000	-47.81004000	-17.36589000
144.86665824	0.00000000	-47.47785000	-16.94759000
145.06665823	0.00000000	-47.43479000	-16.25246000
145.26665822	0.00000000	-47.43479000	-16.25246000
145.46665820	0.00000000	-47.47785000	-16.94759000
145.66665819	0.00000000	-47.85310000	-17.36589000
145.86665818	0.00000000	-48.59744000	-17.78420000
146.06665817	0.00000000	-48.97269000	-18.52854000
146.26665816	0.00000000	-48.97269000	-18.90379000
146.46665815	0.00000000	-48.59744000	-18.94685000
146.66665813	0.00000000	-47.85310000	-18.94685000
146.86665812	0.00000000	-47.47785000	-18.90379000
147.06665811	0.00000000	-47.43479000	-18.52854000
147.26665810	0.00000000	-47.43479000	-17.78420000
147.46665809	0.00000000	-47.43479000	-17.40895000
147.66665807	0.00000000	-47.43479000	-17.32283000
147.86665806	0.00000000	-47.47785000	-16.99065000
148.06665805	0.00000000	-47.85310000	-16.62155000
148.26665804	0.00000000	-48.54823000	-16.99065000
148.46665803	0.00000000	-48.59744000	-17.32283000
148.66665801	0.00000000	-48.22834000	-17.40895000
148.86665800	0.00000000	-48.22219000	-17.78420000
149.06665799	0.00000000	-47.81004000	-18.52854000
149.26665798	0.00000000	-47.47785000	-18.90379000
149.46665797	0.00000000	-47.43479000	-18.94685000
149.66665796	0.00000000	-47.43479000	-18.90379000
149.86665794	0.00000000	-47.43479000	-18.52854000
150.06665793	0.00000000	-47.43479000	-17.78420000
150.26665792	0.00000000	-47.43479000	-17.40895000
150.46665791	0.00000000	-47.43479000	-17.36589000
150.66665790	0.00000000	-47.47785000	-17.32283000
150.86665788	0.00000000	-47.85310000	-16.99065000
151.06665787	0.00000000	-48.59744000	-16.62155000
151.26665786	0.00000000	-48.97269000	-16.99065000
151.46665785	0.00000000	-48.97269000	-17.32283000
151.66665784	0.00000000	-48.59744000	-17.36589000
151.86665782	0.00000000	-47.85310000	-17.36589000
152.06665781	0.00000000	-47.47785000	-17.40895000
152.26665780	0.00000000	-47.43479000	-17.74114000
152.46665779	0.00000000	-47.39173000	-18.11024000
152.66665778	0.00000000	-47.05954000	-17.74114000
152.86665777	0.00000000	-46.69045000	-17.40895000
153.06665775	0.00000000	-47.05954000	-17.36589000
153.26665774	0.00000000	-47.39173000	-17.36589000
153.46665773	0.00000000	-47.47785000	-17.36589000
153.66665772	0.00000000	-47.85310000	-17.36589000
153.86665771	0.00000000	-48.59744000	-17.36589000
154.06665769	0.00000000	-48.97269000	-17.36589000
154.26665768	0.00000000	-49.01575000	-17.36589000
154.46665767	0.00000000	-49.01575000	-17.36589000
154.66665766	0.00000000	-48.97269000	-17.36589000
154.86665765	0.00000000	-48.59744000	-17.40895000
155.06665763	0.00000000	-47.85310000	-17.78420000
155.26665762	0.00000000	-47.47785000	-18.52854000
155.46665761	0.00000000	-47.39173000	-18.90379000
155.66665760	0.00000000	-47.05954000	-18.90379000
155.86665759	0.00000000	-46.69045000	-18.52854000
156.06665758	0.00000000	-47.05954000	-17.78420000
156.26665756	0.00000000	-47.39173000	-17.40895000
156.46665755	0.00000000	-47.43479000	-17.36589000
156.66665754	0.00000000	-47.47785000	-17.32283000
156.86665753	0.00000000	-47.85310000	-16.94759000
157.06665752	0.00000000	-48.59744000	-16.20325000
157.26665750	0.00000000	-48.92347000	-15.87721000
157.46665749	0.00000000	-48.59744000	-16.20325000
157.66665748	0.00000000	-47.85310000	-16.94759000
157.86665747	0.00000000	-47.47785000	-17.32283000
158.06665746	0.00000000	-47.43479000	-17.40895000
158.26665744	0.00000000	-47.43479000	-17.78420000
158.46665743	0.00000000	-47.43479000	-18.52854000
158.66665742	0.00000000	-47.43479000	-18.90379000
158.86665741	0.00000000	-47.43479000	-18.94685000
159.06665740	0.00000000	-47.43479000	-18.90379000
159.26665739	0.00000000	-47.43479000	-18.52854000
159.46665737	0.00000000	-47.47785000	-17.78420000
159.66665736	0.00000000	-47.81004000	-17.40895000
159.86665735	0.00000000	-48.22219000	-17.36589000
160.06665734	0.00000000	-48.18528000	-17.36589000
160.26665733	0.00000000	-48.22219000	-17.36589000
160.46665731	0.00000000	-47.85310000	-17.36589000
160.66665730	0.00000000	-47.85310000	-17.40895000
160.86665729	0.00000000	-48.17913000	-17.78420000
161.06665728	0.00000000	-47.81004000	-18.52854000
161.26665727	0.00000000	-47.47785000	-18.90379000
161.46665725	0.00000000	-47.43479000	-18.94685000
161.66665724	0.00000000	-47.43479000	-18.90379000
161.86665723	0.00000000	-47.43479000	-18.52854000
162.06665722	0.00000000	-47.43479000	-17.78420000
162.26665721	0.00000000	-47.43479000	-17.40895000
162.46665720	0.00000000	-47.43479000	-17.36589000
162.66665718	0.00000000	-47.43479000	-17.36589000
162.86665717	0.00000000	-47.43479000	-17.36589000
163.06665716	0.00000000	-47.43479000	-17.36589000
163.26665715	0.00000000	-47.47785000	-17.40895000
163.46665714	0.00000000	-47.85310000	-17.74114000
163.66665712	0.00000000	-48.54823000	-18.11024000
163.86665711	0.00000000	-48.54823000	-17.74114000
164.06665710	0.00000000	-47.85310000	-17.40895000
164.26665709	0.00000000	-47.43479000	-17.36589000
164.46665708	0.00000000	-47.01648000	-17.36589000
164.66665706	0.00000000	-46.32135000	-17.36589000
164.86665705	0.00000000	-46.27214000	-17.36589000
165.06665704	0.00000000	-46.64124000	-17.36589000
165.26665703	0.00000000	-46.64739000	-17.36589000
165.46665702	0.00000000	-47.05954000	-17.36589000
165.66665701	0.00000000	-47.39173000	-17.36589000
165.86665699	0.00000000	-47.47785000	-17.36589000
166.06665698	0.00000000	-47.81004000	-17.36589000
166.26665697	0.00000000	-48.17913000	-17.36589000
166.46665696	0.00000000	-47.85310000	-17.36589000
166.66665695	0.00000000	-47.85310000	-17.36589000
166.86665693	0.00000000	-48.17913000	-17.36589000
167.06665692	0.00000000	-47.81004000	-17.36589000
167.26665691	0.00000000	-47.47785000	-17.36589000
167.46665690	0.00000000	-47.43479000	-17.36589000
167.66665689	0.00000000	-47.43479000	-17.36589000
167.86665687	0.00000000	-47.43479000	-17.36589000
168.06665686	0.00000000	-47.43479000	-17.36589000
168.26665685	0.00000000	-47.43479000	-17.36589000
168.46665684	0.00000000	-47.43479000	-17.40895000
168.66665683	0.00000000	-47.43479000	-17.74114000
168.86665682	0.00000000	-47.43479000	-18.11024000
169.06665680	0.00000000	-47.43479000	-17.74114000
169.26665679	0.00000000	-47.43479000	-17.40895000
169.46665678	0.00000000	-47.43479000	-17.36589000
169.66665677	0.00000000	-47.43479000	-17.36589000
169.86665676	0.00000000	-47.43479000	-17.36589000
170.06665674	0.00000000	-47.43479000	-17.36589000
170.26665673	0.00000000	-47.43479000	-17.36589000
170.46665672	0.00000000	-47.43479000	-17.40895000
170.66665671	0.00000000	-47.43479000	-17.74114000
170.86665670	0.00000000	-47.43479000	-18.15330000
171.06665668	0.00000000	-47.43479000	-18.11639000
171.26665667	0.00000000	-47.43479000	-18.15330000
171.46665666	0.00000000	-47.43479000	-17.74114000
171.66665665	0.00000000	-47.43479000	-17.40895000
171.86665664	0.00000000	-47.43479000	-17.36589000
172.06665663	0.00000000	-47.43479000	-17.36589000
172.26665661	0.00000000	-47.43479000	-17.36589000
172.46665660	0.00000000	-47.43479000	-17.36589000
172.66665659	0.00000000	-47.43479000	-17.36589000
172.86665658	0.00000000	-47.43479000	-17.36589000
173.06665657	0.00000000	-47.43479000	-17.36589000
173.26665655	0.00000000	-47.43479000	-17.36589000
173.46665654	0.00000000	-47.43479000	-17.36589000
173.66665653	0.00000000	-47.43479000	-17.36589000
173.86665652	0.00000000	-47.43479000	-17.36589000
174.06665651	0.00000000	-47.43479000	-17.36589000
174.26665649	0.00000000	-47.43479000	-17.36589000
174.46665648	0.00000000	-47.43479000	-17.36589000
174.66665647	0.00000000	-47.43479000	-17.36589000
174.86665646	0.00000000	-47.47785000	-17.36589000
175.06665645	0.00000000	-47.81004000	-17.36589000
175.26665644	0.00000000	-48.17913000	-17.36589000
175.46665642	0.00000000	-47.81004000	-17.36589000
175.66665641	0.00000000	-47.47785000	-17.36589000
175.86665640	0.00000000	-47.39173000	-17.36589000
176.06665639	0.00000000	-47.05954000	-17.36589000
176.26665638	0.00000000	-46.69045000	-17.36589000
176.46665636	0.00000000	-47.05954000	-17.36589000
176.66665635	0.00000000	-47.39173000	-17.36589000
176.86665634	0.00000000	-47.43479000	-17.36589000
177.06665633	0.00000000	-47.43479000	-17.36589000
177.26665632	0.00000000	-47.43479000	-17.36589000
177.46665630	0.00000000	-47.43479000	-17.36589000
177.66665629	0.00000000	-47.43479000	-17.36589000
177.86665628	0.00000000	-47.43479000	-17.36589000
178.06665627	0.00000000	-47.43479000	-17.36589000
178.26665626	0.00000000	-47.43479000	-17.36589000
178.46665625	0.00000000	-47.43479000	-17.36589000
178.66665623	0.00000000	-47.43479000	-17.36589000
178.86665622	0.00000000	-47.43479000	-17.36589000
179.06665621	0.00000000	-47.43479000	-17.36589000
179.26665620	0.00000000	-47.43479000	-17.36589000
179.46665619	0.00000000	-47.43479000	-17.36589000
179.66665617	0.00000000	-47.43479000	-17.40895000
179.86665616	0.00000000	-47.47785000	-17.78420000
180.06665615	0.00000000	-47.81004000	-18.47933000
180.26665614	0.00000000	-48.17913000	-18.52854000
180.46665613	0.00000000	-47.81004000	-18.15945000
180.66665611	0.00000000	-47.47785000	-18.15330000
180.86665610	0.00000000	-47.43479000	-17.74114000
181.06665609	0.00000000	-47.43479000	-17.40895000
181.26665608	0.00000000	-47.43479000	-17.36589000
181.46665607	0.00000000	-47.43479000	-17.36589000
181.66665606	0.00000000	-47.43479000	-17.36589000
181.86665604	0.00000000	-47.43479000	-17.36589000
182.06665603	0.00000000	-47.43479000	-17.36589000
182.26665602	0.00000000	-47.43479000	-17.36589000
182.46665601	0.00000000	-47.43479000	-17.36589000
182.66665600	0.00000000	-47.43479000	-17.36589000
182.86665598	0.00000000	-47.43479000	-17.36589000
183.06665597	0.00000000	-47.43479000	-17.40895000
183.26665596	0.00000000	-47.39173000	-17.74114000
183.46665595	0.00000000	-47.05954000	-18.15330000
183.66665594	0.00000000	-46.69045000	-18.11639000
183.86665592	0.00000000	-47.05954000	-18.15330000
184.06665591	0.00000000	-47.39173000	-17.74114000
184.26665590	0.00000000	-47.43479000	-17.40895000
184.46665589	0.00000000	-47.43479000	-17.36589000
184.66665588	0.00000000	-47.43479000	-17.32283000
184.86665587	0.00000000	-47.43479000	-16.99065000
185.06665585	0.00000000	-47.43479000	-16.62155000
185.26665584	0.00000000	-47.43479000	-16.99065000
185.46665583	0.00000000	-47.43479000	-17.32283000
185.66665582	0.00000000	-47.39173000	-17.36589000
185.86665581	0.00000000	-47.01648000	-17.40895000
186.06665579	0.00000000	-46.32135000	-17.78420000
186.26665578	0.00000000	-46.32135000	-18.52854000
186.46665577	0.00000000	-47.01648000	-18.90379000
186.66665576	0.00000000	-47.39173000	-18.90379000
186.86665575	0.00000000	-47.43479000	-18.52854000
187.06665573	0.00000000	-47.43479000	-17.78420000
187.26665572	0.00000000	-47.43479000	-17.36589000
187.46665571	0.00000000	-47.43479000	-16.94759000
187.66665570	0.00000000	-47.43479000	-16.25246000
187.86665569	0.00000000	-47.43479000	-16.25246000
188.06665568	0.00000000	-47.43479000	-16.94759000
188.26665566	0.00000000	-47.43479000	-17.32283000
188.46665565	0.00000000	-47.43479000	-17.36589000
188.66665564	0.00000000	-47.39173000	-17.36589000
188.86665563	0.00000000	-47.01648000	-17.36589000
189.06665562	0.00000000	-46.32135000	-17.36589000
189.26665560	0.00000000	-46.32135000	-17.40895000
189.46665559	0.00000000	-47.01648000	-17.74114000
189.66665558	0.00000000	-47.39173000	-18.11024000
189.86665557	0.00000000	-47.43479000	-17.74114000
190.06665556	0.00000000	-47.43479000	-17.40895000
190.26665554	0.00000000	-47.43479000	-17.36589000
190.46665553	0.00000000	-47.43479000	-17.36589000
190.66665552	0.00000000	-47.43479000	-17.36589000
190.86665551	0.00000000	-47.43479000	-17.36589000
191.06665550	0.00000000	-47.43479000	-17.36589000
191.26665549	0.00000000	-47.43479000	-17.36589000
191.46665547	0.00000000	-47.39173000	-17.36589000
191.66665546	0.00000000	-47.05954000	-17.36589000
191.86665545	0.00000000	-46.64739000	-17.36589000
192.06665544	0.00000000	-46.68430000	-17.36589000
192.26665543	0.00000000	-46.64739000	-17.40895000
192.46665541	0.00000000	-47.05954000	-17.78420000
192.66665540	0.00000000	-47.39173000	-18.52854000
192.86665539	0.00000000	-47.43479000	-18.85458000
193.06665538	0.00000000	-47.43479000	-18.52854000
193.26665537	0.00000000	-47.47785000	-17.78420000
193.46665535	0.00000000	-47.81004000	-17.40895000
193.66665534	0.00000000	-48.17913000	-17.36589000
193.86665533	0.00000000	-47.81004000	-17.36589000
194.06665532	0.00000000	-47.47785000	-17.36589000
194.26665531	0.00000000	-47.39173000	-17.36589000
194.46665530	0.00000000	-47.05954000	-17.36589000
194.66665528	0.00000000	-46.69045000	-17.36589000
194.86665527	0.00000000	-47.01648000	-17.36589000
195.06665526	0.00000000	-47.01648000	-17.36589000
195.26665525	0.00000000	-46.69045000	-17.36589000
195.46665524	0.00000000	-47.05954000	-17.36589000
195.66665522	0.00000000	-47.39173000	-17.36589000
195.86665521	0.00000000	-47.43479000	-17.36589000
196.06665520	0.00000000	-47.43479000	-17.36589000
