Time	Channel A	Channel B	Channel C
(us)	(V)	(mV)	(mV)

-4.59999956	0.00000000	67.99335000	31.57603000
-4.39999957	0.00000000	67.95029000	31.57603000
-4.19999958	0.00000000	67.57505000	31.57603000
-3.99999959	0.00000000	66.87376000	31.57603000
-3.79999960	0.00000000	66.82455000	31.57603000
-3.59999962	0.00000000	67.19365000	31.61909000
-3.39999963	0.00000000	67.20596000	31.95128000
-3.19999964	0.00000000	67.61810000	32.36343000
-2.99999965	0.00000000	67.95029000	32.32653000
-2.79999966	0.00000000	67.99335000	32.40649000
-2.59999968	0.00000000	67.99335000	32.32653000
-2.39999969	0.00000000	67.99335000	32.40649000
-2.19999970	0.00000000	67.99335000	32.36959000
-1.99999971	0.00000000	67.99335000	32.78174000
-1.79999972	0.00000000	67.99335000	33.06471000
-1.59999973	0.00000000	67.99335000	32.78174000
-1.39999975	0.00000000	67.99335000	32.41265000
-1.19999976	0.00000000	67.99335000	32.78174000
-0.99999977	0.00000000	67.99335000	33.11393000
-0.79999978	0.00000000	67.99335000	33.15699000
-0.59999979	0.00000000	67.99335000	33.15699000
-0.39999981	0.15871060	67.99335000	33.15699000
-0.19999982	0.63668800	67.99335000	33.15699000
0.00000017	0.79601380	67.99335000	33.15699000
0.20000016	0.95533960	67.95029000	33.15699000
0.40000015	0.95533960	67.61810000	33.15699000
0.60000013	0.47736220	67.24901000	33.15699000
0.80000012	-0.15871060	67.61810000	33.15699000
1.00000011	-1.11466500	67.95029000	33.15699000
1.20000010	-2.07062000	67.99335000	33.15699000
1.40000009	-2.70792300	67.99335000	33.15699000
1.60000008	-2.70792300	67.99335000	33.15699000
1.80000006	-1.75196900	67.99335000	33.15699000
2.00000005	-0.15871060	67.99335000	33.15699000
2.20000004	1.91129400	67.99335000	33.15699000
2.40000003	3.98191400	67.99335000	33.15699000
2.60000002	5.25652100	67.99335000	33.15699000
2.80000000	5.25652100	67.99335000	33.11393000
2.99999999	3.66326300	67.99335000	32.73868000
3.19999998	0.95533960	67.99335000	32.04355000
3.39999997	-2.38927200	67.99335000	32.04355000
3.59999996	-5.57517200	67.99335000	32.73868000
3.79999994	-7.64579200	67.99335000	33.11393000
3.99999993	-7.80511800	67.99335000	33.20005000
4.19999992	-6.05315000	67.99335000	33.53223000
4.39999991	-2.54859700	67.99335000	33.90133000
4.59999990	1.91129400	67.99335000	33.53223000
4.79999989	5.89382400	67.99335000	33.20005000
4.99999987	8.76107300	67.99335000	33.15699000
5.19999986	9.39837600	67.99335000	33.11393000
5.39999985	7.64579200	67.99335000	32.73868000
5.59999984	3.98191400	67.99335000	31.99434000
5.79999983	-0.63668800	67.99335000	31.66830000
5.99999981	-5.41584600	67.99335000	31.99434000
6.19999980	-8.44242100	67.95029000	32.73868000
6.39999979	-9.55770200	67.61810000	33.11393000
6.59999978	-8.12377000	67.24901000	33.15699000
6.79999977	-4.77854300	67.61810000	33.15699000
6.99999975	-0.47736220	67.95029000	33.15699000
7.19999974	3.66326300	67.99335000	33.15699000
7.39999973	6.69045300	67.99335000	33.11393000
7.59999972	7.80511800	67.99335000	32.73868000
7.79999971	7.00848900	67.99335000	31.99434000
7.99999970	4.45989200	67.99335000	31.61909000
8.19999968	1.27399100	67.99335000	31.57603000
8.39999967	-1.91129400	67.99335000	31.57603000
8.59999966	-4.30056600	67.99335000	31.61909000
8.79999965	-5.25652100	67.99335000	31.99434000
8.99999964	-4.77854300	67.99335000	32.68946000
9.19999962	-3.34522600	67.99335000	32.73868000
9.39999961	-1.27399100	67.99335000	32.41265000
9.59999960	0.47736220	67.99335000	32.78174000
9.79999959	1.91129400	67.99335000	33.11393000
9.99999958	2.54859700	68.03641000	33.15699000
10.19999956	2.38927200	68.32554000	33.15699000
10.39999955	1.75196900	68.35629000	33.15699000
10.59999954	0.79601380	67.62426000	33.11393000
10.79999953	0.00000000	67.66117000	32.73868000
10.99999952	-0.63668800	67.95029000	31.99434000
11.19999951	-0.95533960	67.99335000	31.61909000
11.39999949	-0.95533960	67.99335000	31.57603000
11.59999948	-0.79601380	67.99335000	31.57603000
11.79999947	-0.47736220	67.99335000	31.57603000
11.99999946	-0.15871060	67.99335000	31.61909000
12.19999945	-0.15871060	67.99335000	31.95128000
12.39999943	0.00000000	67.99335000	32.32037000
12.59999942	0.00000000	67.99335000	31.95128000
12.79999941	0.00000000	67.99335000	31.66830000
12.99999940	0.00000000	67.99335000	31.95128000
13.19999939	0.00000000	67.99335000	32.32037000
13.39999937	0.00000000	67.99335000	31.95128000
13.59999936	0.00000000	67.99335000	31.66830000
13.79999935	0.00000000	67.99335000	31.99434000
13.99999934	-0.15871060	67.99335000	32.73868000
14.19999933	-0.15871060	67.99335000	33.11393000
14.39999932	-0.15871060	67.99335000	33.15699000
14.59999930	-0.15871060	67.99335000	33.15699000
14.79999929	0.00000000	67.99335000	33.15699000
14.99999928	0.00000000	67.99335000	33.15699000
15.19999927	0.00000000	67.99335000	33.15699000
15.39999926	0.00000000	67.99335000	33.15699000
15.59999924	0.00000000	67.99335000	33.15699000
15.79999923	0.00000000	67.99335000	33.15699000
15.99999922	0.00000000	67.99335000	33.15699000
16.19999921	0.00000000	67.99335000	33.15699000
16.39999920	-0.15871060	68.03641000	33.15699000
16.59999919	-0.15871060	68.41166000	33.15699000
16.79999917	-0.15871060	69.15600000	33.15699000
16.99999916	0.00000000	69.53124000	33.15699000
17.19999915	0.00000000	69.61736000	33.15699000
17.39999914	0.00000000	69.99261000	33.15699000
17.59999913	0.00000000	70.68774000	33.20005000
17.79999911	0.00000000	70.64468000	33.53223000
17.99999910	0.00000000	69.53124000	33.90133000
18.19999909	0.00000000	67.99335000	33.53223000
18.39999908	0.00000000	66.40624000	33.20005000
18.59999907	0.00000000	64.86835000	33.15699000
18.79999905	0.00000000	63.71186000	33.15699000
18.99999904	0.00000000	63.37967000	33.15699000
19.19999903	0.00000000	64.13016000	33.15699000
19.39999902	0.00000000	66.12328000	33.15699000
19.59999901	0.00000000	68.87303000	33.15699000
19.79999900	0.00000000	72.77928000	33.15699000
19.99999898	0.00000000	76.92544000	33.15699000
20.19999897	0.00000000	79.61983000	33.15699000
20.39999896	0.00000000	79.95201000	33.15699000
20.59999895	0.00000000	77.62057000	33.15699000
20.79999894	0.00000000	72.50861000	33.15699000
20.99999892	0.00000000	65.52657000	33.15699000
21.19999891	-0.15871060	57.43110000	33.15699000
21.39999890	0.00000000	50.59055000	33.11393000
21.59999889	0.00000000	47.51476000	32.78174000
21.79999888	0.00000000	49.09572000	32.36959000
21.99999886	0.00000000	55.33341000	32.36343000
22.19999885	0.00000000	65.42815000	31.95128000
22.39999884	0.00000000	77.42986000	31.61909000
22.59999883	0.00000000	89.01943000	31.61909000
22.79999882	0.00000000	97.44094000	31.99434000
22.99999881	0.00000000	100.00610000	32.73868000
23.19999879	0.00000000	94.93110000	33.11393000
23.39999878	0.00000000	82.51107000	33.20005000
23.59999877	0.00000000	65.56963000	33.57529000
23.79999876	0.00000000	47.75467000	34.31963000
23.99999875	0.00000000	33.50763000	34.64567000
24.19999873	0.00000000	25.83661000	34.31963000
24.39999872	0.00000000	27.50984000	33.48917000
24.59999871	0.00000000	39.13632000	32.32037000
24.79999870	0.00000000	58.45226000	30.37647000
24.99999869	0.00000000	81.24999000	28.51255000
25.19999867	0.00000000	102.05460000	27.30684000
25.39999866	0.00000000	115.91410000	26.93159000
25.59999865	0.00000000	118.98380000	27.39296000
25.79999864	0.00000000	110.47610000	29.34916000
25.99999863	0.00000000	92.27977000	32.82480000
26.19999862	0.00000000	67.94415000	36.68799000
26.39999860	0.00000000	43.28247000	40.58809000
26.59999859	0.00000000	24.34793000	43.57160000
26.79999858	0.00000000	15.41585000	44.30979000
26.99999857	0.00000000	18.11024000	41.99065000
27.19999856	0.00000000	31.69906000	37.29700000
27.39999854	0.00000000	53.70940000	30.69636000
27.59999853	0.00000000	79.15845000	22.98228000
27.79999852	0.00000000	101.54400000	16.47392000
27.99999851	0.00000000	115.91410000	12.62303000
28.19999850	0.00000000	119.40820000	12.70915000
28.39999848	0.00000000	111.72490000	17.40280000
28.59999847	0.00000000	94.74040000	26.32259000
28.79999846	0.00000000	72.73621000	37.94291000
28.99999845	0.00000000	50.72588000	49.88312000
29.19999844	0.00000000	33.64911000	59.45497000
29.39999843	0.00000000	25.08612000	63.63803000
29.59999841	0.00000000	25.79355000	60.94365000
29.79999840	0.00000000	35.46383000	52.02386000
29.99999839	0.00000000	51.66092000	38.45349000
30.19999838	0.00000000	70.60162000	22.61319000
30.39999837	0.00000000	88.04749000	7.97244000
30.59999835	0.00000000	100.42450000	-2.01156500
30.79999834	0.00000000	105.53640000	-4.65674200
30.99999833	0.00000000	102.47290000	1.14419300
31.19999832	0.00000000	92.87647000	14.24705000
31.39999831	0.00000000	78.92471000	31.62524000
31.59999829	0.00000000	63.84719000	49.42175000
31.79999828	0.00000000	50.67667000	64.10556000
31.99999827	0.00000000	42.16904000	72.60703000
32.19999826	0.00000000	40.16978000	72.97613000
32.39999825	0.00000000	44.35285000	65.26205000
32.59999824	0.00000000	53.24187000	50.90428000
32.79999822	0.00000000	64.82529000	32.78174000
32.99999821	0.00000000	76.45792000	14.62229000
33.19999820	0.00000000	85.72219000	0.72588580
33.39999819	0.00000000	90.74187000	-6.23769700
33.59999818	0.00000000	89.99754000	-4.70595500
33.79999816	0.00000000	84.31963000	4.90895600
33.99999815	0.00000000	75.80585000	19.96186000
34.19999814	0.00000000	66.54158000	37.38312000
34.39999813	0.00000000	58.45226000	53.60482000
34.59999812	0.00000000	53.79552000	65.16978000
34.79999810	0.00000000	53.37721000	69.39591000
34.99999809	0.00000000	56.82209000	65.26205000
35.19999808	0.00000000	63.37967000	54.48449000
35.39999807	0.00000000	71.01993000	40.21899000
35.59999806	0.00000000	77.52829000	25.12303000
35.79999805	0.00000000	80.64714000	12.75836000
35.99999803	0.00000000	79.99508000	5.41338600
36.19999802	0.00000000	76.88238000	4.67519700
36.39999801	0.00000000	71.89345000	11.13435000
36.59999800	0.00000000	66.08636000	22.28100000
36.79999799	0.00000000	61.51574000	34.97785000
36.99999797	0.00000000	58.77829000	46.53666000
37.19999796	0.00000000	59.19045000	53.42642000
37.39999795	0.00000000	62.21702000	54.29995000
37.59999794	0.00000000	66.87376000	49.32948000
37.79999793	0.00000000	72.22563000	40.50196000
37.99999791	0.00000000	76.45792000	30.13656000
38.19999790	0.00000000	78.46333000	20.98302000
38.39999789	0.00000000	78.46333000	16.38164000
38.59999788	0.00000000	76.50713000	17.44587000
38.79999787	0.00000000	72.64394000	23.20989000
38.99999786	0.00000000	68.03641000	32.04355000
39.19999784	0.00000000	63.75492000	41.56618000
39.39999783	0.00000000	60.67913000	48.44365000
39.59999782	0.00000000	59.47342000	50.35679000
39.79999781	0.00000000	60.21776000	46.91191000
39.99999780	0.00000000	62.13090000	38.87795000
40.19999778	0.00000000	64.91756000	28.93085000
40.39999777	0.00000000	68.41166000	20.05413000
40.59999776	0.00000000	72.26870000	14.33317000
40.79999775	0.00000000	75.38755000	13.59498000
40.99999774	0.00000000	77.30068000	18.56545000
41.19999772	0.00000000	77.71284000	27.34990000
41.39999771	0.00000000	76.18109000	37.38312000
41.59999770	0.00000000	73.89886000	46.21678000
41.79999769	0.00000000	71.11221000	51.60556000
41.99999768	0.00000000	67.99335000	51.98080000
42.19999767	0.00000000	64.87450000	47.42249000
42.39999765	0.00000000	62.21702000	39.33932000
42.59999764	0.00000000	61.05437000	30.13656000
42.79999763	0.00000000	61.75566000	22.01033000
42.99999762	0.00000000	63.28740000	16.98450000
43.19999761	0.00000000	65.24360000	15.82800000
43.39999759	0.00000000	67.61810000	18.89148000
43.59999758	0.00000000	69.94955000	25.35064000
43.79999757	0.00000000	72.22563000	32.64640000
43.99999756	0.00000000	73.38828000	38.87795000
44.19999755	0.00000000	73.11147000	43.14714000
44.39999753	0.00000000	72.77928000	44.72810000
44.59999752	0.00000000	72.73621000	43.57160000
44.79999751	0.00000000	72.73621000	40.12672000
44.99999750	0.00000000	72.69316000	35.15625000
45.19999749	0.00000000	72.22563000	30.55487000
45.39999748	0.00000000	70.64468000	27.39296000
45.59999746	0.00000000	67.99335000	25.81816000
45.79999745	0.00000000	65.24360000	25.81816000
45.99999744	0.00000000	62.86909000	27.34990000
46.19999743	0.00000000	60.54995000	30.04429000
46.39999742	0.00000000	59.09818000	33.11393000
46.59999740	0.00000000	59.56569000	35.85138000
46.79999739	0.00000000	62.68454000	37.80142000
46.99999738	0.00000000	68.07948000	38.96407000
47.19999737	0.00000000	74.27411000	38.92101000
47.39999736	0.00000000	80.08734000	37.38312000
47.59999734	0.00000000	84.27657000	34.73794000
47.79999733	0.00000000	85.39001000	31.99434000
47.99999732	0.00000000	82.69561000	29.66904000
48.19999731	0.00000000	76.88238000	27.76821000
48.39999730	0.00000000	69.10678000	27.39296000
48.59999729	0.00000000	60.59301000	28.51255000
48.79999727	0.00000000	53.37721000	30.51181000
48.99999726	0.00000000	49.89542000	33.62450000
49.19999725	0.00000000	51.42101000	37.43233000
49.39999724	0.00000000	56.82209000	40.45275000
49.59999723	0.00000000	65.37893000	41.65846000
49.79999721	0.00000000	75.34448000	40.87721000
49.99999720	0.00000000	83.80905000	38.54576000
50.19999719	0.00000000	88.46579000	34.69488000
50.39999718	0.00000000	88.46579000	30.46260000
50.59999717	0.00000000	83.85210000	26.97465000
50.79999715	0.00000000	75.76279000	24.69857000
50.99999714	0.00000000	66.54158000	24.74778000
51.19999713	0.00000000	58.40305000	27.34990000
51.39999712	0.00000000	53.42027000	31.20078000
51.59999711	0.00000000	52.68208000	35.11319000
51.79999710	0.00000000	56.87131000	38.96407000
51.99999708	0.00000000	64.49925000	41.65846000
52.19999707	0.00000000	72.60088000	42.40895000
52.39999706	0.00000000	79.53371000	41.24015000
52.59999705	0.00000000	83.34768000	37.80142000
52.79999704	0.00000000	82.64640000	33.62450000
52.99999702	0.00000000	78.46333000	30.08735000
53.19999701	0.00000000	72.26870000	27.39296000
53.39999700	0.00000000	65.37893000	26.27953000
53.59999699	0.00000000	59.98400000	27.34990000
53.79999698	0.00000000	57.65256000	29.66904000
53.99999696	0.00000000	58.45226000	32.36959000
54.19999695	0.00000000	62.68454000	35.38385000
54.39999694	0.00000000	69.15600000	36.87254000
54.59999693	0.00000000	75.25220000	36.22662000
54.79999692	0.00000000	79.15845000	34.73794000
54.99999691	0.00000000	79.95201000	33.15699000
55.19999689	0.00000000	78.03887000	31.62524000
55.39999688	0.00000000	73.76353000	30.51181000
55.59999687	0.00000000	68.03641000	30.55487000
55.79999686	0.00000000	62.68454000	32.08661000
55.99999685	0.00000000	59.60876000	34.73794000
56.19999683	0.00000000	59.52263000	37.34006000
56.39999682	0.00000000	61.84178000	38.50270000
56.59999681	0.00000000	65.71111000	37.71530000
56.79999680	0.00000000	70.68774000	35.38385000
56.99999679	0.00000000	74.92618000	31.53297000
57.19999677	0.00000000	77.25147000	27.34990000
57.39999676	0.00000000	77.66363000	24.28026000
57.59999675	0.00000000	75.76279000	23.16683000
57.79999674	0.00000000	72.69316000	24.69857000
57.99999673	0.00000000	69.19906000	28.55561000
58.19999672	0.00000000	65.75418000	33.62450000
58.39999670	0.00000000	63.84104000	39.38238000
58.59999669	0.00000000	63.75492000	44.30979000
58.79999668	0.00000000	64.91756000	46.21678000
58.99999667	0.00000000	66.82455000	44.72810000
59.19999666	0.00000000	69.15600000	40.40969000
59.39999664	0.00000000	71.06299000	33.90133000
59.59999663	0.00000000	72.22563000	26.61171000
59.79999662	0.00000000	72.26870000	21.21678000
59.99999661	0.00000000	71.53051000	18.47318000
60.19999660	0.00000000	70.73695000	18.94070000
60.39999658	0.00000000	69.57431000	23.20989000
60.59999657	0.00000000	68.46087000	30.51181000
60.79999656	0.00000000	68.08563000	38.92101000
60.99999655	0.00000000	68.46087000	45.84153000
61.19999654	0.00000000	69.57431000	49.32948000
61.39999653	0.00000000	70.73695000	48.95423000
61.59999651	0.00000000	71.48744000	44.72810000
61.79999650	0.00000000	71.85040000	37.80758000
61.99999649	0.00000000	71.06299000	30.08735000
62.19999648	0.00000000	69.57431000	23.12377000
62.39999647	0.00000000	68.03641000	18.51624000
62.59999645	0.00000000	66.87376000	17.35974000
62.79999644	0.00000000	66.49852000	20.09719000
62.99999643	0.00000000	66.87376000	26.23647000
63.19999642	0.00000000	68.03641000	34.27042000
63.39999641	0.00000000	69.57431000	41.61540000
63.59999639	0.00000000	71.15526000	46.67815000
63.79999638	0.00000000	72.69316000	48.95423000
63.99999637	0.00000000	73.80659000	47.42249000
64.19999636	0.00000000	73.80659000	42.49508000
64.39999635	0.00000000	72.64394000	36.36196000
64.59999634	0.00000000	70.73695000	30.51181000
64.79999632	0.00000000	68.41166000	25.81816000
64.99999631	0.00000000	66.49852000	22.74852000
65.19999630	0.00000000	65.37893000	21.96112000
65.39999629	0.00000000	65.75418000	23.86196000
65.59999628	0.00000000	67.61810000	27.30684000
65.79999626	0.00000000	69.53124000	31.57603000
65.99999625	0.00000000	71.11221000	35.80217000
66.19999624	0.00000000	72.26870000	38.96407000
66.39999623	0.00000000	72.60088000	40.96333000
66.59999622	0.00000000	71.85040000	42.11983000
66.79999620	0.00000000	69.99261000	42.07677000
66.99999619	0.00000000	68.46087000	40.58809000
67.19999618	0.00000000	67.66117000	38.26894000
67.39999617	0.00000000	67.29208000	35.89444000
67.59999616	0.00000000	68.12868000	33.11393000
67.79999615	0.00000000	70.04182000	30.04429000
67.99999613	0.00000000	72.69316000	27.30684000
68.19999612	0.00000000	74.96924000	25.35064000
68.39999611	0.00000000	75.76279000	24.23720000
68.59999610	0.00000000	75.34448000	24.65551000
68.79999609	0.00000000	73.34522000	27.01772000
68.99999607	0.00000000	69.52509000	30.88090000
69.19999606	0.00000000	65.29281000	35.89444000
69.39999605	0.00000000	61.84178000	40.50196000
69.59999604	0.00000000	59.94094000	43.65773000
69.79999603	0.00000000	60.72834000	45.14640000
69.99999601	0.00000000	63.79798000	44.35285000
70.19999600	0.00000000	68.45472000	40.87721000
70.39999599	0.00000000	73.89886000	35.85138000
70.59999598	0.00000000	78.88164000	30.04429000
70.79999597	0.00000000	82.32037000	24.70472000
70.99999596	0.00000000	82.64640000	21.63509000
71.19999594	0.00000000	79.61983000	21.54281000
71.39999593	0.00000000	74.22490000	23.86196000
71.59999592	0.00000000	68.03641000	27.72515000
71.79999591	0.00000000	62.17396000	32.73868000
71.99999590	0.00000000	57.60949000	37.34006000
72.19999588	0.00000000	55.65944000	40.45275000
72.39999587	0.00000000	57.19118000	41.61540000
72.59999586	0.00000000	61.05437000	40.50196000
72.79999585	0.00000000	66.91682000	37.80758000
72.99999584	0.00000000	73.80659000	34.36269000
73.19999582	0.00000000	79.57676000	30.93012000
73.39999581	0.00000000	82.69561000	29.01698000
73.59999580	0.00000000	82.73868000	28.93085000
73.79999579	0.00000000	80.04429000	30.04429000
73.99999578	0.00000000	75.38755000	31.57603000
74.19999577	0.00000000	69.61736000	33.11393000
74.39999575	0.00000000	64.17323000	34.22736000
74.59999574	0.00000000	60.35310000	34.18430000
74.79999573	0.00000000	58.77829000	32.73868000
74.99999572	0.00000000	60.31004000	30.83784000
75.19999571	0.00000000	63.71186000	29.71826000
75.39999569	0.00000000	67.99335000	29.30610000
75.59999568	0.00000000	72.22563000	30.17962000
75.79999567	0.00000000	75.30142000	32.46186000
75.99999566	0.00000000	76.50713000	35.93750000
76.19999565	0.00000000	75.80585000	39.33932000
76.39999563	0.00000000	74.27411000	41.65846000
76.59999562	0.00000000	72.31791000	41.99065000
76.79999561	0.00000000	70.04182000	40.07751000
76.99999560	0.00000000	68.50394000	36.22662000
77.19999559	0.00000000	68.03641000	31.57603000
77.39999558	0.00000000	68.03641000	26.93159000
77.59999556	0.00000000	68.41166000	23.12377000
77.79999555	0.00000000	69.15600000	21.63509000
77.99999554	0.00000000	69.53124000	23.16683000
78.19999553	0.00000000	69.53124000	27.39296000
78.39999552	0.00000000	69.15600000	33.15699000
78.59999550	0.00000000	68.41166000	38.96407000
78.79999549	0.00000000	68.08563000	43.61467000
78.99999548	0.00000000	68.50394000	46.30290000
79.19999547	0.00000000	70.04182000	46.30290000
79.39999546	0.00000000	72.31791000	43.61467000
79.59999544	0.00000000	74.22490000	38.96407000
79.79999543	0.00000000	75.38755000	33.20005000
79.99999542	0.00000000	75.38755000	27.81127000
80.19999541	0.00000000	74.22490000	24.32333000
80.39999540	0.00000000	72.26870000	23.12377000
80.59999539	0.00000000	69.57431000	24.23720000
80.79999537	0.00000000	66.91682000	26.93159000
80.99999536	0.00000000	65.33588000	30.41954000
81.19999535	0.00000000	64.96062000	34.31963000
81.39999534	0.00000000	65.75418000	37.80758000
81.59999533	0.00000000	68.07948000	40.54502000
81.79999531	0.00000000	71.11221000	42.07677000
81.99999530	0.00000000	73.84965000	42.11983000
82.19999529	0.00000000	75.76279000	40.96333000
82.39999528	0.00000000	76.55019000	39.00713000
82.59999527	0.00000000	75.76279000	36.26968000
82.79999525	0.00000000	73.84965000	33.15699000
82.99999524	0.00000000	71.15526000	30.04429000
83.19999523	0.00000000	68.50394000	27.30684000
83.39999522	0.00000000	66.95989000	25.39985000
83.59999521	0.00000000	66.87376000	24.65551000
83.79999520	0.00000000	67.61810000	25.81816000
83.99999518	0.00000000	68.41166000	28.51255000
84.19999517	0.00000000	69.57431000	31.99434000
84.39999516	0.00000000	70.68774000	35.89444000
84.59999515	0.00000000	71.11221000	39.38238000
84.79999514	0.00000000	71.15526000	42.07677000
84.99999512	0.00000000	71.15526000	43.19020000
85.19999511	0.00000000	71.15526000	42.03371000
85.39999510	0.00000000	71.15526000	38.96407000
85.59999509	0.00000000	71.15526000	34.69488000
85.79999508	0.00000000	71.15526000	30.04429000
85.99999506	0.00000000	71.15526000	25.81816000
86.19999505	0.00000000	71.15526000	23.12377000
86.39999504	0.00000000	71.11221000	22.74852000
86.59999503	0.00000000	70.68774000	24.69857000
86.79999502	0.00000000	69.53124000	28.93085000
86.99999501	0.00000000	68.03641000	34.27042000
87.19999499	0.00000000	66.91682000	38.92101000
87.39999498	0.00000000	66.91682000	42.03371000
87.59999497	0.00000000	68.03641000	43.19020000
87.79999496	0.00000000	69.57431000	42.03371000
87.99999495	0.00000000	71.15526000	38.92101000
88.19999493	0.00000000	72.69316000	34.31963000
88.39999492	0.00000000	73.84965000	29.34916000
88.59999491	0.00000000	74.22490000	25.90428000
88.79999490	0.00000000	73.84965000	24.70472000
88.99999489	0.00000000	72.69316000	25.86122000
89.19999487	0.00000000	71.11221000	28.93085000
89.39999486	0.00000000	69.19906000	33.15699000
89.59999485	0.00000000	67.29208000	37.38312000
89.79999484	0.00000000	66.54158000	40.45275000
89.99999483	0.00000000	66.87376000	41.61540000
90.19999482	0.00000000	68.03641000	40.45275000
90.39999480	0.00000000	69.57431000	37.38312000
90.59999479	0.00000000	71.11221000	33.15699000
90.79999478	0.00000000	72.26870000	28.97392000
90.99999477	0.00000000	72.64394000	26.23647000
91.19999476	0.00000000	72.31791000	25.48597000
91.39999474	0.00000000	71.57356000	26.65477000
91.59999473	0.00000000	71.19833000	30.13656000
91.79999472	0.00000000	71.15526000	34.69488000
91.99999471	0.00000000	71.15526000	38.92101000
92.19999470	0.00000000	71.15526000	41.61540000
92.39999468	0.00000000	71.11221000	41.99065000
92.59999467	0.00000000	70.73695000	40.07751000
92.79999466	0.00000000	69.94955000	36.26968000
92.99999465	0.00000000	69.19906000	32.04355000
93.19999464	0.00000000	68.41166000	28.55561000
93.39999463	0.00000000	68.03641000	26.27953000
93.59999461	0.00000000	68.03641000	26.27953000
93.79999460	0.00000000	68.46087000	28.55561000
93.99999459	0.00000000	69.61736000	32.04355000
94.19999458	0.00000000	71.19833000	36.26968000
94.39999457	0.00000000	73.11147000	40.07751000
94.59999455	0.00000000	75.01230000	41.99065000
94.79999454	0.00000000	75.80585000	41.61540000
94.99999453	0.00000000	75.80585000	38.96407000
95.19999452	0.00000000	74.96924000	35.15625000
95.39999451	0.00000000	72.64394000	31.66830000
95.59999449	0.00000000	69.57431000	28.97392000
95.79999448	0.00000000	66.49852000	27.81127000
95.99999447	0.00000000	64.17323000	28.59867000
96.19999446	0.00000000	63.42274000	30.88090000
96.39999445	0.00000000	64.17323000	34.31963000
96.59999444	0.00000000	66.54158000	37.38312000
96.79999442	0.00000000	69.99261000	39.33932000
96.99999441	0.00000000	73.89886000	40.08366000
97.19999440	0.00000000	77.30068000	38.92101000
97.39999439	0.00000000	79.29380000	36.31274000
97.59999438	0.00000000	79.25689000	33.61835000
97.79999436	0.00000000	77.75590000	31.66830000
97.99999435	0.00000000	74.60014000	30.46260000
98.19999434	0.00000000	70.78001000	30.09350000
98.39999433	0.00000000	66.87376000	30.46260000
98.59999432	0.00000000	63.79798000	31.62524000
98.79999430	0.00000000	62.26008000	33.11393000
98.99999429	0.00000000	62.63533000	34.27042000
99.19999428	0.00000000	64.91756000	34.69488000
99.39999427	0.00000000	68.03641000	34.73794000
99.59999426	0.00000000	71.53051000	34.73794000
99.79999425	0.00000000	75.01230000	34.73794000
99.99999423	0.00000000	77.34374000	34.73794000
100.19999422	0.00000000	78.50639000	34.78100000
100.39999421	0.00000000	78.08808000	35.15625000
100.59999420	0.00000000	75.80585000	35.85138000
100.79999419	0.00000000	72.73621000	35.80217000
100.99999417	0.00000000	69.61736000	34.68873000
101.19999416	0.00000000	66.91682000	33.15699000
101.39999415	0.00000000	65.33588000	31.57603000
101.59999414	0.00000000	64.91756000	30.04429000
101.79999413	0.00000000	65.29281000	28.93085000
101.99999411	0.00000000	66.49852000	28.97392000
102.19999410	0.00000000	68.41166000	30.46260000
102.39999409	0.00000000	70.73695000	32.78174000
102.59999408	0.00000000	72.69316000	35.11319000
102.79999407	0.00000000	74.27411000	37.43233000
102.99999406	0.00000000	75.38755000	38.92101000
103.19999404	0.00000000	75.38755000	38.96407000
103.39999403	0.00000000	74.27411000	37.75836000
103.59999402	0.00000000	72.69316000	35.43307000
103.79999401	0.00000000	70.78001000	31.99434000
103.99999400	0.00000000	68.82996000	28.97392000
104.19999398	0.00000000	67.66117000	27.34990000
104.39999397	0.00000000	66.87376000	26.97465000
104.59999396	0.00000000	66.91682000	27.76821000
104.79999395	0.00000000	68.03641000	30.08735000
104.99999394	0.00000000	69.57431000	33.15699000
105.19999392	0.00000000	71.11221000	36.22662000
105.39999391	0.00000000	72.26870000	38.50270000
105.59999390	0.00000000	72.69316000	38.92101000
105.79999389	0.00000000	72.69316000	37.85064000
105.99999388	0.00000000	72.31791000	36.26968000
106.19999387	0.00000000	71.53051000	34.31963000
106.39999385	0.00000000	70.73695000	32.04355000
106.59999384	0.00000000	69.61736000	30.55487000
106.79999383	0.00000000	68.92224000	30.46260000
106.99999382	0.00000000	69.61736000	31.25000000
107.19999381	0.00000000	70.73695000	32.41265000
107.39999379	0.00000000	71.53051000	34.31963000
107.59999378	0.00000000	72.31791000	35.80217000
107.79999377	0.00000000	72.64394000	36.26968000
107.99999376	0.00000000	72.31791000	36.26968000
108.19999375	0.00000000	71.53051000	35.85138000
108.39999374	0.00000000	70.73695000	34.68873000
108.59999372	0.00000000	69.61736000	33.20005000
108.79999371	0.00000000	68.87917000	32.04355000
108.99999370	0.00000000	69.19906000	31.66830000
109.19999369	0.00000000	69.57431000	32.04355000
109.39999368	0.00000000	70.04182000	33.20005000
109.59999366	0.00000000	71.19833000	34.73794000
109.79999365	0.00000000	72.69316000	36.26968000
109.99999364	0.00000000	73.80659000	37.38312000
110.19999363	0.00000000	73.84965000	37.42618000
110.39999362	0.00000000	73.11147000	36.68799000
110.59999360	0.00000000	72.31791000	35.85138000
110.79999359	0.00000000	71.15526000	34.31963000
110.99999358	0.00000000	69.99261000	32.46186000
111.19999357	0.00000000	69.24213000	31.66830000
111.39999356	0.00000000	68.82996000	31.57603000
111.59999355	0.00000000	69.24213000	31.61909000
111.79999353	0.00000000	69.94955000	32.04355000
111.99999352	0.00000000	70.78001000	33.15699000
112.19999351	0.00000000	71.57356000	34.31963000
112.39999350	0.00000000	72.69316000	35.06397000
112.59999349	0.00000000	73.43134000	35.47613000
112.79999347	0.00000000	73.11147000	35.11319000
112.99999346	0.00000000	72.73621000	34.78100000
113.19999345	0.00000000	72.31791000	34.69488000
113.39999344	0.00000000	71.53051000	34.36269000
113.59999343	0.00000000	70.78001000	33.99360000
113.79999341	0.00000000	70.04182000	34.31963000
113.99999340	0.00000000	70.04182000	34.27042000
114.19999339	0.00000000	70.73695000	33.57529000
114.39999338	0.00000000	71.11221000	33.15699000
114.59999337	0.00000000	71.15526000	32.73868000
114.79999336	0.00000000	71.19833000	32.04355000
114.99999334	0.00000000	71.53051000	31.99434000
115.19999333	0.00000000	71.94266000	32.36343000
115.39999332	0.00000000	71.94881000	32.36959000
115.59999331	0.00000000	72.31791000	32.82480000
115.79999330	0.00000000	72.26870000	33.53223000
115.99999328	0.00000000	71.57356000	34.36269000
116.19999327	0.00000000	71.15526000	35.11319000
116.39999326	0.00000000	70.73695000	35.89444000
116.59999325	0.00000000	69.99261000	36.22047000
116.79999324	0.00000000	69.66658000	35.85138000
116.99999322	0.00000000	69.99261000	34.73794000
117.19999321	0.00000000	70.73695000	33.57529000
117.39999320	0.00000000	71.15526000	32.78174000
117.59999319	0.00000000	71.57356000	31.99434000
117.79999318	0.00000000	72.31791000	31.61909000
117.99999317	0.00000000	72.69316000	31.57603000
118.19999315	0.00000000	72.69316000	31.61909000
118.39999314	0.00000000	72.31791000	31.99434000
118.59999313	0.00000000	71.53051000	32.78174000
118.79999312	0.00000000	70.73695000	33.53223000
118.99999311	0.00000000	69.61736000	34.36269000
119.19999309	0.00000000	68.82996000	35.06397000
119.39999308	0.00000000	68.82381000	35.47613000
119.59999307	0.00000000	68.82996000	35.11319000
119.79999306	0.00000000	69.66658000	34.78100000
119.99999305	0.00000000	71.15526000	34.69488000
120.19999303	0.00000000	72.69316000	34.31963000
120.39999302	0.00000000	73.84965000	33.57529000
120.59999301	0.00000000	74.27411000	33.20005000
120.79999300	0.00000000	74.27411000	33.15699000
120.99999299	0.00000000	73.84965000	33.15699000
121.19999298	0.00000000	72.73621000	33.15699000
121.39999296	0.00000000	71.57356000	33.15699000
121.59999295	0.00000000	70.73695000	33.15699000
121.79999294	0.00000000	69.61736000	33.20005000
121.99999293	0.00000000	68.87917000	33.57529000
122.19999292	0.00000000	69.19906000	34.31963000
122.39999290	0.00000000	69.57431000	34.69488000
122.59999289	0.00000000	70.04182000	34.78100000
122.79999288	0.00000000	71.15526000	35.15625000
122.99999287	0.00000000	72.26870000	35.85138000
123.19999286	0.00000000	72.73621000	35.85138000
123.39999284	0.00000000	73.15452000	35.15625000
123.59999283	0.00000000	73.84965000	34.73794000
123.79999282	0.00000000	73.84965000	34.31963000
123.99999281	0.00000000	73.15452000	33.57529000
124.19999280	0.00000000	72.73621000	33.20005000
124.39999279	0.00000000	72.31791000	33.15699000
124.59999277	0.00000000	71.53051000	33.15699000
124.79999276	0.00000000	70.78001000	33.20005000
124.99999275	0.00000000	69.99261000	33.57529000
125.19999274	0.00000000	69.61736000	34.31963000
125.39999273	0.00000000	69.61736000	34.73794000
125.59999271	0.00000000	70.04182000	35.15625000
125.79999270	0.00000000	71.15526000	35.85138000
125.99999269	0.00000000	72.31791000	35.89444000
126.19999268	0.00000000	73.06840000	35.53149000
126.39999267	0.00000000	73.52361000	35.51919000
126.59999265	0.00000000	73.48671000	35.11319000
126.79999264	0.00000000	73.52361000	34.73794000
126.99999263	0.00000000	73.06840000	34.31963000
127.19999262	0.00000000	72.31791000	33.57529000
127.39999261	0.00000000	71.11221000	33.20005000
127.59999260	0.00000000	69.66658000	33.20005000
127.79999258	0.00000000	68.87917000	33.53223000
127.99999257	0.00000000	69.24213000	33.94439000
128.19999256	0.00000000	69.94955000	33.95054000
128.39999255	0.00000000	70.78001000	34.36269000
128.59999254	0.00000000	71.57356000	34.69488000
128.79999252	0.00000000	72.73621000	34.73794000
128.99999251	0.00000000	73.80659000	34.73794000
129.19999250	0.00000000	73.84965000	34.69488000
129.39999249	0.00000000	73.11147000	34.31963000
129.59999248	0.00000000	72.31791000	33.57529000
129.79999246	0.00000000	71.15526000	33.20005000
129.99999245	0.00000000	70.04182000	33.15699000
130.19999244	0.00000000	69.61736000	33.20005000
130.39999243	0.00000000	69.61736000	33.57529000
130.59999242	0.00000000	69.99261000	34.31963000
130.79999241	0.00000000	70.78001000	34.69488000
130.99999239	0.00000000	71.57356000	34.73794000
131.19999238	0.00000000	72.69316000	34.73794000
131.39999237	0.00000000	73.48056000	34.69488000
131.59999236	0.00000000	73.48671000	34.31963000
131.79999235	0.00000000	73.48056000	33.53223000
131.99999233	0.00000000	72.69316000	32.78174000
132.19999232	0.00000000	71.57356000	32.04355000
132.39999231	0.00000000	70.78001000	32.04355000
132.59999230	0.00000000	70.04182000	32.73868000
132.79999229	0.00000000	70.04182000	33.15699000
132.99999227	0.00000000	70.73695000	33.57529000
133.19999226	0.00000000	71.11221000	34.31963000
133.39999225	0.00000000	71.19833000	34.73794000
133.59999224	0.00000000	71.53051000	35.11319000
133.79999223	0.00000000	71.89960000	35.47613000
133.99999222	0.00000000	71.53051000	35.06397000
134.19999220	0.00000000	71.19833000	34.36269000
134.39999219	0.00000000	71.15526000	33.53223000
134.59999218	0.00000000	71.15526000	32.78174000
134.79999217	0.00000000	71.15526000	31.99434000
134.99999216	0.00000000	71.15526000	31.61909000
135.19999214	0.00000000	71.19833000	31.57603000
135.39999213	0.00000000	71.57356000	31.61909000
135.59999212	0.00000000	72.26870000	32.04355000
135.79999211	0.00000000	72.26870000	33.15699000
135.99999210	0.00000000	71.57356000	34.27042000
136.19999208	0.00000000	71.19833000	34.69488000
136.39999207	0.00000000	71.11221000	34.73794000
136.59999206	0.00000000	70.73695000	34.69488000
136.79999205	0.00000000	70.04182000	34.36269000
136.99999204	0.00000000	70.04182000	33.95054000
137.19999203	0.00000000	70.78001000	33.94439000
137.39999201	0.00000000	71.53051000	33.53223000
137.59999200	0.00000000	72.36097000	33.20005000
137.79999199	0.00000000	73.06840000	33.15699000
137.99999198	0.00000000	73.48056000	33.15699000
138.19999197	0.00000000	73.11147000	33.15699000
138.39999195	0.00000000	72.73621000	33.15699000
138.59999194	0.00000000	72.31791000	33.20005000
138.79999193	0.00000000	71.57356000	33.57529000
138.99999192	0.00000000	71.19833000	34.31963000
139.19999191	0.00000000	71.15526000	34.73794000
139.39999189	0.00000000	71.15526000	35.15625000
139.59999188	0.00000000	71.19833000	35.89444000
139.79999187	0.00000000	71.57356000	36.22047000
139.99999186	0.00000000	72.31791000	35.89444000
140.19999185	0.00000000	72.69316000	35.15625000
140.39999184	0.00000000	72.73621000	34.73794000
140.59999182	0.00000000	72.73621000	34.31963000
140.79999181	0.00000000	72.73621000	33.57529000
140.99999180	0.00000000	72.69316000	33.20005000
141.19999179	0.00000000	72.31791000	33.20005000
141.39999178	0.00000000	71.57356000	33.57529000
141.59999176	0.00000000	71.24754000	34.36269000
141.79999175	0.00000000	71.57356000	35.11319000
141.99999174	0.00000000	72.31791000	35.89444000
142.19999173	0.00000000	72.69316000	36.26968000
142.39999172	0.00000000	72.77928000	36.35580000
142.59999170	0.00000000	73.11147000	36.68799000
142.79999169	0.00000000	73.48056000	36.96481000
142.99999168	0.00000000	73.11147000	35.85138000
143.19999167	0.00000000	72.73621000	34.03666000
143.39999166	0.00000000	72.31791000	33.24926000
143.59999165	0.00000000	71.57356000	33.15699000
143.79999163	0.00000000	71.19833000	33.15699000
143.99999162	0.00000000	71.19833000	33.20005000
144.19999161	0.00000000	71.57356000	33.57529000
144.39999160	0.00000000	72.31791000	34.31963000
144.59999159	0.00000000	72.69316000	34.73794000
144.79999157	0.00000000	72.73621000	35.11319000
144.99999156	0.00000000	72.73621000	35.47613000
145.19999155	0.00000000	72.73621000	35.11319000
145.39999154	0.00000000	72.69316000	34.78100000
145.59999153	0.00000000	72.31791000	34.69488000
145.79999151	0.00000000	71.57356000	34.31963000
145.99999150	0.00000000	71.19833000	33.57529000
146.19999149	0.00000000	71.15526000	33.20005000
146.39999148	0.00000000	71.19833000	33.15699000
146.59999147	0.00000000	71.57356000	33.15699000
146.79999146	0.00000000	72.31791000	33.15699000
146.99999144	0.00000000	72.69316000	33.15699000
147.19999143	0.00000000	72.73621000	33.20005000
147.39999142	0.00000000	72.73621000	33.57529000
147.59999141	0.00000000	72.69316000	34.31963000
147.79999140	0.00000000	72.31791000	34.69488000
147.99999138	0.00000000	71.57356000	34.69488000
148.19999137	0.00000000	71.19833000	34.36269000
148.39999136	0.00000000	71.15526000	33.95054000
148.59999135	0.00000000	71.15526000	33.94439000
148.79999134	0.00000000	71.19833000	33.53223000
148.99999132	0.00000000	71.57356000	33.20005000
149.19999131	0.00000000	72.31791000	33.15699000
149.39999130	0.00000000	72.69316000	33.15699000
149.59999129	0.00000000	72.73621000	33.15699000
149.79999128	0.00000000	72.73621000	33.15699000
149.99999127	0.00000000	72.73621000	33.20005000
150.19999125	0.00000000	72.73621000	33.57529000
150.39999124	0.00000000	72.69316000	34.31963000
150.59999123	0.00000000	72.31791000	34.69488000
150.79999122	0.00000000	71.57356000	34.73794000
150.99999121	0.00000000	71.19833000	34.73794000
151.19999119	0.00000000	71.15526000	34.73794000
151.39999118	0.00000000	71.15526000	34.69488000
151.59999117	0.00000000	71.19833000	34.31963000
151.79999116	0.00000000	71.57356000	33.57529000
151.99999115	0.00000000	72.31791000	33.20005000
152.19999113	0.00000000	72.69316000	33.15699000
152.39999112	0.00000000	72.73621000	33.20005000
152.59999111	0.00000000	72.73621000	33.57529000
152.79999110	0.00000000	72.73621000	34.31963000
152.99999109	0.00000000	72.73621000	34.69488000
153.19999108	0.00000000	72.73621000	34.73794000
153.39999106	0.00000000	72.69316000	34.73794000
153.59999105	0.00000000	72.31791000	34.73794000
153.79999104	0.00000000	71.57356000	34.73794000
153.99999103	0.00000000	71.19833000	34.73794000
154.19999102	0.00000000	71.15526000	34.73794000
154.39999100	0.00000000	71.15526000	34.73794000
154.59999099	0.00000000	71.19833000	34.73794000
154.79999098	0.00000000	71.57356000	34.73794000
154.99999097	0.00000000	72.31791000	34.73794000
155.19999096	0.00000000	72.69316000	34.73794000
155.39999094	0.00000000	72.77928000	34.73794000
155.59999093	0.00000000	73.11147000	34.69488000
155.79999092	0.00000000	73.48056000	34.36269000
155.99999091	0.00000000	73.11147000	33.99360000
156.19999090	0.00000000	72.77928000	34.36269000
156.39999089	0.00000000	72.69316000	34.73794000
156.59999087	0.00000000	72.31791000	35.15625000
156.79999086	0.00000000	71.57356000	35.85138000
156.99999085	0.00000000	71.19833000	35.89444000
157.19999084	0.00000000	71.15526000	35.53149000
157.39999083	0.00000000	71.19833000	35.51919000
157.59999081	0.00000000	71.57356000	35.11319000
157.79999080	0.00000000	72.31791000	34.73794000
157.99999079	0.00000000	72.69316000	34.31963000
158.19999078	0.00000000	72.73621000	33.62450000
158.39999077	0.00000000	72.73621000	33.57529000
158.59999075	0.00000000	72.73621000	33.94439000
158.79999074	0.00000000	72.73621000	33.90748000
158.99999073	0.00000000	72.73621000	33.98745000
159.19999072	0.00000000	72.73621000	33.95054000
159.39999071	0.00000000	72.69316000	34.40575000
159.59999070	0.00000000	72.31791000	35.06397000
159.79999068	0.00000000	71.57356000	35.47613000
159.99999067	0.00000000	71.24754000	35.11319000
160.19999066	0.00000000	71.53051000	34.78100000
160.39999065	0.00000000	71.94266000	34.73794000
160.59999064	0.00000000	71.94881000	34.73794000
160.79999062	0.00000000	72.36097000	34.69488000
160.99999061	0.00000000	72.69316000	34.31963000
161.19999060	0.00000000	72.73621000	33.57529000
161.39999059	0.00000000	72.73621000	33.24926000
161.59999058	0.00000000	72.73621000	33.53223000
161.79999056	0.00000000	72.73621000	33.94439000
161.99999055	0.00000000	72.73621000	33.95054000
162.19999054	0.00000000	72.73621000	34.36269000
162.39999053	0.00000000	72.73621000	34.69488000
162.59999052	0.00000000	72.73621000	34.73794000
162.79999051	0.00000000	72.73621000	34.73794000
162.99999049	0.00000000	72.69316000	34.73794000
163.19999048	0.00000000	72.31791000	34.73794000
163.39999047	0.00000000	71.57356000	34.69488000
163.59999046	0.00000000	71.19833000	34.31963000
163.79999045	0.00000000	71.15526000	33.57529000
163.99999043	0.00000000	71.19833000	33.24926000
164.19999042	0.00000000	71.57356000	33.53223000
164.39999041	0.00000000	72.31791000	33.90133000
164.59999040	0.00000000	72.69316000	33.53223000
164.79999039	0.00000000	72.73621000	33.20005000
164.99999037	0.00000000	72.73621000	33.15699000
165.19999036	0.00000000	72.73621000	33.20005000
165.39999035	0.00000000	72.73621000	33.57529000
165.59999034	0.00000000	72.73621000	34.31963000
165.79999033	0.00000000	72.73621000	34.69488000
165.99999032	0.00000000	72.73621000	34.73794000
166.19999030	0.00000000	72.69316000	34.73794000
166.39999029	0.00000000	72.31791000	34.69488000
166.59999028	0.00000000	71.62278000	34.36269000
166.79999027	0.00000000	71.62278000	33.99360000
166.99999026	0.00000000	72.31791000	34.31963000
167.19999024	0.00000000	72.69316000	34.31963000
167.39999023	0.00000000	72.73621000	33.95054000
167.59999022	0.00000000	72.73621000	33.98745000
167.79999021	0.00000000	72.73621000	33.95054000
167.99999020	0.00000000	72.73621000	34.36269000
168.19999018	0.00000000	72.73621000	34.69488000
168.39999017	0.00000000	72.73621000	34.73794000
168.59999016	0.00000000	72.73621000	34.73794000
168.79999015	0.00000000	72.73621000	34.73794000
168.99999014	0.00000000	72.73621000	34.73794000
169.19999013	0.00000000	72.73621000	34.73794000
169.39999011	0.00000000	72.73621000	34.73794000
169.59999010	0.00000000	72.73621000	34.73794000
169.79999009	0.00000000	72.73621000	34.73794000
169.99999008	0.00000000	72.73621000	34.73794000
170.19999007	0.00000000	72.73621000	34.73794000
170.39999005	0.00000000	72.73621000	34.73794000
170.59999004	0.00000000	72.73621000	34.73794000
170.79999003	0.00000000	72.73621000	34.73794000
170.99999002	0.00000000	72.77928000	34.73794000
171.19999001	0.00000000	73.11147000	34.73794000
171.39998999	0.00000000	73.48056000	34.73794000
171.59998998	0.00000000	73.11147000	34.73794000
171.79998997	0.00000000	72.77928000	34.73794000
171.99998996	0.00000000	72.73621000	34.73794000
172.19998995	0.00000000	72.73621000	34.73794000
172.39998994	0.00000000	72.73621000	34.73794000
172.59998992	0.00000000	72.77928000	34.73794000
172.79998991	0.00000000	73.11147000	34.78100000
172.99998990	0.00000000	73.48056000	35.11319000
173.19998989	0.00000000	73.11147000	35.47613000
173.39998988	0.00000000	72.77928000	35.11319000
173.59998986	0.00000000	72.73621000	34.78100000
173.79998985	0.00000000	72.73621000	34.73794000
173.99998984	0.00000000	72.77928000	34.73794000
174.19998983	0.00000000	73.11147000	34.73794000
174.39998982	0.00000000	73.48056000	34.73794000
174.59998980	0.00000000	73.11147000	34.73794000
174.79998979	0.00000000	72.77928000	34.73794000
174.99998978	0.00000000	72.73621000	34.73794000
175.19998977	0.00000000	72.73621000	34.73794000
175.39998976	0.00000000	72.73621000	34.73794000
175.59998975	0.00000000	72.73621000	34.73794000
175.79998973	0.00000000	72.73621000	34.73794000
175.99998972	0.00000000	72.73621000	34.73794000
176.19998971	0.00000000	72.73621000	34.73794000
176.39998970	0.00000000	72.73621000	34.73794000
176.59998969	0.00000000	72.73621000	34.73794000
176.79998967	0.00000000	72.73621000	34.73794000
176.99998966	0.00000000	72.73621000	34.73794000
177.19998965	0.00000000	72.73621000	34.73794000
177.39998964	0.00000000	72.73621000	34.73794000
177.59998963	0.00000000	72.73621000	34.73794000
177.79998961	0.00000000	72.73621000	34.73794000
177.99998960	0.00000000	72.73621000	34.73794000
178.19998959	0.00000000	72.73621000	34.73794000
178.39998958	0.00000000	72.73621000	34.69488000
178.59998957	0.00000000	72.73621000	34.31963000
178.79998956	0.00000000	72.73621000	33.62450000
178.99998954	0.00000000	72.73621000	33.62450000
179.19998953	0.00000000	72.73621000	34.27042000
179.39998952	0.00000000	72.73621000	34.27042000
179.59998951	0.00000000	72.73621000	33.57529000
179.79998950	0.00000000	72.73621000	33.20005000
179.99998948	0.00000000	72.73621000	33.15699000
180.19998947	0.00000000	72.73621000	33.15699000
180.39998946	0.00000000	72.73621000	33.15699000
180.59998945	0.00000000	72.73621000	33.15699000
180.79998944	0.00000000	72.73621000	33.15699000
180.99998942	0.00000000	72.73621000	33.20005000
181.19998941	0.00000000	72.73621000	33.57529000
181.39998940	0.00000000	72.73621000	34.31963000
181.59998939	0.00000000	72.73621000	34.69488000
181.79998938	0.00000000	72.73621000	34.73794000
181.99998937	0.00000000	72.73621000	34.73794000
182.19998935	0.00000000	72.73621000	34.73794000
182.39998934	0.00000000	72.73621000	34.73794000
182.59998933	0.00000000	72.73621000	34.73794000
182.79998932	0.00000000	72.73621000	34.73794000
182.99998931	0.00000000	72.73621000	34.73794000
183.19998929	0.00000000	72.73621000	34.73794000
183.39998928	0.00000000	72.73621000	34.73794000
183.59998927	0.00000000	72.73621000	34.73794000
183.79998926	0.00000000	72.73621000	34.73794000
183.99998925	0.00000000	72.73621000	34.78100000
184.19998923	0.00000000	72.73621000	35.11319000
184.39998922	0.00000000	72.73621000	35.51919000
184.59998921	0.00000000	72.73621000	35.53149000
184.79998920	0.00000000	72.73621000	35.93750000
184.99998919	0.00000000	72.73621000	36.26968000
185.19998918	0.00000000	72.77928000	36.31274000
185.39998916	0.00000000	73.15452000	36.26968000
185.59998915	0.00000000	73.89886000	35.89444000
185.79998914	0.00000000	74.27411000	35.15625000
185.99998913	0.00000000	74.31717000	34.78100000
186.19998912	0.00000000	74.31717000	34.73794000
186.39998910	0.00000000	74.27411000	34.73794000
186.59998909	0.00000000	73.89886000	34.73794000
186.79998908	0.00000000	73.15452000	34.73794000
186.99998907	0.00000000	72.77928000	34.73794000
187.19998906	0.00000000	72.73621000	34.78100000
187.39998904	0.00000000	72.73621000	35.15625000
187.59998903	0.00000000	72.73621000	35.89444000
187.79998902	0.00000000	72.73621000	36.22047000
187.99998901	0.00000000	72.77928000	35.89444000
188.19998900	0.00000000	73.11147000	35.15625000
188.39998899	0.00000000	73.52361000	34.78100000
188.59998897	0.00000000	73.52977000	34.73794000
188.79998896	0.00000000	73.94193000	34.69488000
188.99998895	0.00000000	74.27411000	34.31963000
189.19998894	0.00000000	74.27411000	33.62450000
189.39998893	0.00000000	73.89886000	33.62450000
189.59998891	0.00000000	73.15452000	34.31963000
189.79998890	0.00000000	72.77928000	34.69488000
189.99998889	0.00000000	72.73621000	34.73794000
190.19998888	0.00000000	72.73621000	34.73794000
190.39998887	0.00000000	72.73621000	34.73794000
190.59998885	0.00000000	72.73621000	34.73794000
190.79998884	0.00000000	72.73621000	34.73794000
190.99998883	0.00000000	72.73621000	34.73794000
191.19998882	0.00000000	72.77928000	34.73794000
191.39998881	0.00000000	73.15452000	34.73794000
191.59998880	0.00000000	73.89886000	34.73794000
191.79998878	0.00000000	74.27411000	34.73794000
191.99998877	0.00000000	74.31717000	34.69488000
192.19998876	0.00000000	74.27411000	34.31963000
192.39998875	0.00000000	73.89886000	33.57529000
192.59998874	0.00000000	73.15452000	33.20005000
192.79998872	0.00000000	72.77928000	33.20005000
192.99998871	0.00000000	72.73621000	33.57529000
193.19998870	0.00000000	72.73621000	34.31963000
193.39998869	0.00000000	72.73621000	34.69488000
193.59998868	0.00000000	72.73621000	34.73794000
193.79998866	0.00000000	72.73621000	34.73794000
193.99998865	0.00000000	72.73621000	34.73794000
194.19998864	0.00000000	72.77928000	34.73794000
194.39998863	0.00000000	73.15452000	34.73794000
194.59998862	0.00000000	73.89886000	34.73794000
194.79998861	0.00000000	74.27411000	34.73794000
194.99998859	0.00000000	74.27411000	34.69488000
195.19998858	0.00000000	73.89886000	34.31963000
195.39998857	0.00000000	73.15452000	33.57529000
195.59998856	0.00000000	72.77928000	33.24926000
195.79998855	0.00000000	72.73621000	33.57529000
195.99998853	0.00000000	72.73621000	34.31963000
