Time	Channel A	Channel B	Channel C
(us)	(V)	(mV)	(mV)

-4.53333289	0.00000000	-17.39050000	-12.62918000
-4.33333290	0.00000000	-17.39050000	-12.62918000
-4.13333291	0.00000000	-17.39050000	-12.62918000
-3.93333293	0.00000000	-17.39050000	-12.62918000
-3.73333294	0.00000000	-17.39050000	-12.62918000
-3.53333295	0.00000000	-17.39050000	-12.62918000
-3.33333296	0.00000000	-17.39050000	-12.62918000
-3.13333297	0.00000000	-17.39050000	-12.62918000
-2.93333299	0.00000000	-17.34744000	-12.62918000
-2.73333300	0.00000000	-17.01525000	-12.62918000
-2.53333301	0.00000000	-16.64616000	-12.62918000
-2.33333302	0.00000000	-17.01525000	-12.62918000
-2.13333303	0.00000000	-17.34744000	-12.62918000
-1.93333304	0.00000000	-17.39050000	-12.62918000
-1.73333306	0.00000000	-17.39050000	-12.62918000
-1.53333307	0.00000000	-17.39050000	-12.62918000
-1.33333308	0.00000000	-17.39050000	-12.62918000
-1.13333309	0.00000000	-17.39050000	-12.62918000
-0.93333310	0.00000000	-17.39050000	-12.62918000
-0.73333312	0.00000000	-17.39050000	-12.62918000
-0.53333313	0.00000000	-17.39050000	-12.62918000
-0.33333314	0.15871060	-17.39050000	-12.62918000
-0.13333315	0.47736220	-17.39050000	-12.62918000
0.06666684	0.95533960	-17.39050000	-12.62918000
0.26666682	0.95533960	-17.34744000	-12.62918000
0.46666681	0.95533960	-17.01525000	-12.62918000
0.66666680	0.47736220	-16.64616000	-12.62918000
0.86666679	-0.31803640	-17.01525000	-12.62918000
1.06666678	-1.27399100	-17.34744000	-12.62918000
1.26666677	-2.07062000	-17.39050000	-12.62918000
1.46666675	-2.70792300	-17.39050000	-12.62918000
1.66666674	-2.54859700	-17.39050000	-12.62918000
1.86666673	-1.75196900	-17.39050000	-12.62918000
2.06666672	0.00000000	-17.39050000	-12.62918000
2.26666671	2.07062000	-17.39050000	-12.62918000
2.46666669	4.14124000	-17.39050000	-12.62918000
2.66666668	5.25652100	-17.39050000	-12.62918000
2.86666667	5.09719500	-17.39050000	-12.62918000
3.06666666	3.50393700	-17.39050000	-12.67224000
3.26666665	0.79601380	-17.39050000	-13.00443000
3.46666663	-2.70792300	-17.39050000	-13.37352000
3.66666662	-5.73449800	-17.39050000	-13.00443000
3.86666661	-7.64579200	-17.39050000	-12.67224000
4.06666660	-7.80511800	-17.39050000	-12.62918000
4.26666659	-5.73449800	-17.39050000	-12.58612000
4.46666658	-2.22994600	-17.39050000	-12.25394000
4.66666656	2.22994600	-17.39050000	-11.88484000
4.86666655	6.21247500	-17.39050000	-12.25394000
5.06666654	8.92039900	-17.39050000	-12.62918000
5.26666653	9.39837600	-17.39050000	-13.04749000
5.46666652	7.48646600	-17.39050000	-13.79183000
5.66666650	3.66326300	-17.43356000	-14.16708000
5.86666649	-1.11466500	-17.76575000	-14.16708000
6.06666648	-5.57517200	-18.13484000	-13.79183000
6.26666647	-8.60174700	-17.76575000	-13.04749000
6.46666646	-9.39837600	-17.43356000	-12.67224000
6.66666644	-7.96444400	-17.39050000	-12.62918000
6.86666643	-4.45989200	-17.39050000	-12.62918000
7.06666642	-0.15871060	-17.39050000	-12.62918000
7.26666641	3.98191400	-17.39050000	-12.67224000
7.46666640	6.84916400	-17.39050000	-13.00443000
7.66666639	7.80511800	-17.39050000	-13.37352000
7.86666637	6.69045300	-17.43356000	-13.04749000
8.06666636	4.30056600	-17.76575000	-13.09670000
8.26666635	0.95533960	-18.13484000	-13.79183000
8.46666634	-2.07062000	-17.76575000	-14.11786000
8.66666633	-4.30056600	-17.43356000	-13.79183000
8.86666631	-5.25652100	-17.43356000	-13.04749000
9.06666630	-4.61921700	-17.76575000	-12.67224000
9.26666629	-3.18590100	-18.13484000	-12.67224000
9.46666628	-1.11466500	-17.76575000	-13.00443000
9.66666627	0.63668800	-17.43356000	-13.37352000
9.86666625	1.91129400	-17.39050000	-13.04749000
10.06666624	2.54859700	-17.43356000	-13.04749000
10.26666623	2.38927200	-17.80881000	-13.41658000
10.46666622	1.59264300	-18.55315000	-13.42274000
10.66666621	0.79601380	-18.87918000	-13.83489000
10.86666620	0.00000000	-18.55315000	-14.11786000
11.06666618	-0.63668800	-17.80881000	-13.79183000
11.26666617	-0.95533960	-17.43356000	-13.09670000
11.46666616	-0.95533960	-17.43356000	-13.09670000
11.66666615	-0.79601380	-17.76575000	-13.79183000
11.86666614	-0.47736220	-18.13484000	-14.11786000
12.06666612	-0.15871060	-17.80881000	-13.79183000
12.26666611	-0.15871060	-17.80881000	-13.04749000
12.46666610	0.00000000	-18.13484000	-12.72146000
12.66666609	0.00000000	-17.76575000	-13.04749000
12.86666608	0.00000000	-17.48277000	-13.79183000
13.06666606	0.00000000	-17.76575000	-14.11786000
13.26666605	0.00000000	-18.17790000	-13.83489000
13.46666604	0.00000000	-18.14099000	-13.46580000
13.66666603	0.00000000	-18.22096000	-13.83489000
13.86666602	0.00000000	-18.14099000	-14.11786000
14.06666601	0.00000000	-18.22096000	-13.79183000
14.26666599	-0.15871060	-18.18405000	-13.04749000
14.46666598	-0.15871060	-18.55315000	-12.67224000
14.66666597	0.00000000	-18.55315000	-12.62918000
14.86666596	0.00000000	-18.18405000	-12.62918000
15.06666595	0.00000000	-18.17790000	-12.62918000
15.26666593	0.00000000	-17.76575000	-12.62918000
15.46666592	0.00000000	-17.43356000	-12.62918000
15.66666591	0.00000000	-17.43356000	-12.62918000
15.86666590	0.00000000	-17.80881000	-12.62918000
16.06666589	0.00000000	-18.55315000	-12.62918000
16.26666587	0.00000000	-18.92839000	-12.67224000
16.46666586	0.00000000	-18.97145000	-13.00443000
16.66666585	-0.15871060	-18.92839000	-13.41658000
16.86666584	-0.15871060	-18.55315000	-13.42274000
17.06666583	0.00000000	-17.76575000	-13.79183000
17.26666582	0.00000000	-17.01525000	-13.74262000
17.46666580	0.00000000	-16.27707000	-13.09670000
17.66666579	0.00000000	-16.22785000	-13.09670000
17.86666578	0.00000000	-16.64001000	-13.79183000
18.06666577	0.00000000	-17.07062000	-14.11786000
18.26666576	0.00000000	-18.63927000	-13.79183000
18.46666574	0.00000000	-20.50935000	-13.04749000
18.66666573	0.00000000	-22.09030000	-12.67224000
18.86666572	0.00000000	-23.20374000	-12.62918000
19.06666571	0.00000000	-23.20374000	-12.67224000
19.26666570	0.00000000	-22.04109000	-13.00443000
19.46666568	0.00000000	-20.04183000	-13.37352000
19.66666567	0.00000000	-16.92298000	-13.00443000
19.86666566	0.00000000	-13.06594000	-12.67224000
20.06666565	0.00000000	-9.62106200	-12.62918000
20.26666564	0.00000000	-7.34498000	-12.62918000
20.46666563	0.00000000	-7.38804100	-12.62918000
20.66666561	0.00000000	-10.13164000	-12.62918000
20.86666560	0.00000000	-15.20054000	-12.62918000
21.06666559	0.00000000	-22.17643000	-12.62918000
21.26666558	0.00000000	-29.52756000	-12.62918000
21.46666557	0.00000000	-35.67913000	-12.62918000
21.66666555	0.00000000	-39.02559000	-12.67224000
21.86666554	0.00000000	-37.40157000	-13.00443000
22.06666553	0.00000000	-30.46875000	-13.41658000
22.26666552	0.00000000	-19.99877000	-13.42274000
22.46666551	0.00000000	-7.94783400	-13.83489000
22.66666549	0.00000000	3.58636800	-14.11786000
22.86666548	0.00000000	11.58957000	-13.79183000
23.06666547	0.00000000	13.08440000	-13.04749000
23.26666546	0.00000000	7.22194800	-12.67224000
23.46666545	0.00000000	-5.19808000	-12.58612000
23.66666544	0.00000000	-22.22564000	-12.21087000
23.86666542	0.00000000	-39.95448000	-11.46653000
24.06666541	0.00000000	-54.19537000	-11.14050000
24.26666540	0.00000000	-61.07898000	-11.51575000
24.46666539	0.00000000	-58.29232000	-12.67224000
24.66666538	0.00000000	-45.90920000	-14.21014000
24.86666536	0.00000000	-26.18725000	-15.78494000
25.06666535	0.00000000	-3.80782500	-17.36589000
25.26666534	0.00000000	16.24631000	-18.85458000
25.46666533	0.00000000	28.94316000	-19.59892000
25.66666532	0.00000000	30.85630000	-18.81152000
25.86666530	0.00000000	21.54897000	-16.85531000
26.06666529	0.00000000	2.61441900	-13.69956000
26.26666528	0.00000000	-21.71506000	-9.51648500
26.46666527	0.00000000	-45.63853000	-5.66560000
26.66666526	0.00000000	-63.77952000	-3.33415300
26.86666525	0.00000000	-71.50590000	-2.59596400
27.06666523	0.00000000	-67.31667000	-4.26304100
27.26666522	0.00000000	-52.61442000	-8.90747900
27.46666521	0.00000000	-30.60408000	-15.87721000
27.66666520	0.00000000	-6.27460600	-23.59129000
27.86666519	0.00000000	14.61614000	-30.51181000
28.06666517	0.00000000	27.78666000	-34.69488000
28.26666516	0.00000000	30.48105000	-34.65182000
28.46666515	0.00000000	22.05955000	-29.91511000
28.66666514	0.00000000	5.08120100	-20.62008000
28.86666513	0.00000000	-16.18479000	-8.31077700
29.06666511	0.00000000	-37.44463000	3.62942900
29.26666510	0.00000000	-53.68479000	12.50615000
29.46666509	0.00000000	-61.49729000	16.31397000
29.66666508	0.00000000	-60.00861000	13.57037000
29.86666507	0.00000000	-50.00615000	4.65059000
30.06666506	0.00000000	-34.18430000	-8.91363100
30.26666504	0.00000000	-16.41240000	-24.75394000
30.46666503	0.00000000	-0.50442900	-39.34547000
30.66666502	0.00000000	10.38386000	-49.00959000
30.86666501	0.00000000	14.70842000	-51.29183000
31.06666500	0.00000000	12.00787000	-45.84769000
31.26666498	0.00000000	3.16806100	-33.07701000
31.46666497	0.00000000	-9.57800100	-15.69882000
31.66666496	0.00000000	-23.16068000	2.42372000
31.86666495	0.00000000	-35.21161000	17.51968000
32.06666494	0.00000000	-43.68233000	25.98425000
32.26666492	0.00000000	-46.41978000	26.39025000
32.46666491	0.00000000	-43.03026000	18.26402000
32.66666490	0.00000000	-35.30389000	3.62942900
32.86666489	0.00000000	-24.83391000	-14.21014000
33.06666488	0.00000000	-13.61959000	-31.95743000
33.26666487	0.00000000	-4.36146600	-45.84769000
33.46666485	0.00000000	1.07652500	-52.44832000
33.66666484	0.00000000	1.50098400	-50.91658000
33.86666483	0.00000000	-2.68823800	-41.66461000
34.06666482	0.00000000	-10.03937000	-26.56865000
34.26666481	0.00000000	-18.87918000	-9.23351300
34.46666479	0.00000000	-26.97465000	7.01894700
34.66666478	0.00000000	-32.04970000	18.17790000
34.86666477	0.00000000	-33.63066000	22.12106000
35.06666476	0.00000000	-31.71752000	18.27018000
35.26666475	0.00000000	-26.69783000	7.85556000
35.46666473	0.00000000	-20.17716000	-6.77903500
35.66666472	0.00000000	-13.61959000	-22.20103000
35.86666471	0.00000000	-9.06126900	-34.56570000
36.06666470	0.00000000	-7.85556000	-41.52928000
36.26666469	0.00000000	-10.13164000	-41.57849000
36.46666468	0.00000000	-14.69611000	-35.02707000
36.66666466	0.00000000	-20.08489000	-23.91732000
36.86666465	0.00000000	-24.74163000	-10.86983000
37.06666464	0.00000000	-27.81127000	-0.08612204
37.26666463	0.00000000	-28.59867000	6.13927100
37.46666462	0.00000000	-26.64862000	6.92667200
37.66666460	0.00000000	-22.87770000	1.91314000
37.86666459	0.00000000	-18.22711000	-7.24040300
38.06666458	0.00000000	-14.36393000	-17.97490000
38.26666457	0.00000000	-11.62032000	-26.75935000
38.46666456	0.00000000	-10.50689000	-31.02854000
38.66666454	0.00000000	-11.66339000	-29.87205000
38.86666453	0.00000000	-14.73917000	-23.78199000
39.06666452	0.00000000	-18.97145000	-14.58538000
39.26666451	0.00000000	-23.20374000	-5.42568800
39.46666450	0.00000000	-26.32259000	1.11958700
39.66666449	0.00000000	-27.94660000	2.94045300
39.86666447	0.00000000	-28.27879000	-0.83046260
40.06666446	0.00000000	-27.10999000	-9.23351300
40.26666445	0.00000000	-24.04650000	-18.81152000
40.46666444	0.00000000	-20.59547000	-27.35605000
40.66666443	0.00000000	-17.39050000	-33.02780000
40.86666441	0.00000000	-14.32087000	-33.77214000
41.06666440	0.00000000	-11.99557000	-28.80167000
41.26666439	0.00000000	-11.24508000	-20.01722000
41.46666438	0.00000000	-11.99557000	-9.98400600
41.66666437	0.00000000	-14.32087000	-1.15649600
41.86666435	0.00000000	-17.39050000	4.23228400
42.06666434	0.00000000	-20.50935000	4.65059000
42.26666433	0.00000000	-23.24680000	0.42445860
42.46666432	0.00000000	-25.20300000	-7.24040300
42.66666431	0.00000000	-26.36565000	-16.48622000
42.86666430	0.00000000	-26.36565000	-24.52633000
43.06666428	0.00000000	-25.20300000	-29.58907000
43.26666427	0.00000000	-23.29601000	-30.37647000
43.46666426	0.00000000	-20.92766000	-27.35605000
43.66666425	0.00000000	-18.63927000	-21.59203000
43.86666424	0.00000000	-16.69537000	-14.67150000
44.06666422	0.00000000	-15.90182000	-8.48917200
44.26666421	0.00000000	-15.80955000	-4.21998000
44.46666420	0.00000000	-15.80955000	-2.63902500
44.66666419	0.00000000	-15.80955000	-3.75246000
44.86666418	0.00000000	-15.80955000	-6.82209600
45.06666416	0.00000000	-15.85261000	-11.04823000
45.26666415	0.00000000	-16.32013000	-15.27436000
45.46666414	0.00000000	-17.90108000	-18.39321000
45.66666413	0.00000000	-20.59547000	-19.97416000
45.86666412	0.00000000	-23.71432000	-20.01722000
46.06666411	0.00000000	-26.83317000	-18.85458000
46.26666409	0.00000000	-29.48450000	-16.90453000
46.46666408	0.00000000	-30.59793000	-14.21014000
46.66666407	0.00000000	-29.39222000	-11.51575000
46.86666406	0.00000000	-25.90428000	-9.60875900
47.06666405	0.00000000	-20.46014000	-8.77829600
47.26666403	0.00000000	-14.32087000	-9.19045200
47.46666402	0.00000000	-8.87672100	-10.31004000
47.66666401	0.00000000	-5.38877900	-12.30315000
47.86666400	0.00000000	-4.26919300	-14.58538000
48.06666399	0.00000000	-6.31766700	-16.94759000
48.26666397	0.00000000	-12.13091000	-18.81152000
48.46666396	0.00000000	-20.59547000	-19.59892000
48.66666395	0.00000000	-29.44143000	-18.81152000
48.86666394	0.00000000	-36.37426000	-16.90453000
49.06666393	0.00000000	-39.45005000	-14.16092000
49.26666392	0.00000000	-37.91216000	-11.09744000
49.46666390	0.00000000	-32.13582000	-8.40305000
49.66666389	0.00000000	-23.67126000	-6.90821800
49.86666388	0.00000000	-14.69611000	-7.28346400
50.06666387	0.00000000	-6.63754800	-9.60875900
50.26666386	0.00000000	-1.29798200	-13.04749000
50.46666384	0.00000000	-1.29183100	-16.94759000
50.66666383	0.00000000	-5.85014700	-20.39247000
50.86666382	0.00000000	-13.57652000	-22.71161000
51.06666381	0.00000000	-22.82849000	-23.03765000
51.26666380	0.00000000	-30.88705000	-21.13066000
51.46666379	0.00000000	-35.90674000	-17.27362000
51.66666377	0.00000000	-36.33120000	-12.67224000
51.86666376	0.00000000	-32.51107000	-8.40305000
52.06666375	0.00000000	-25.94734000	-5.37647600
52.26666374	0.00000000	-17.90108000	-4.59522600
52.46666373	0.00000000	-10.96826000	-6.48991100
52.66666371	0.00000000	-7.10506800	-9.89173200
52.86666370	0.00000000	-6.69291300	-13.83489000
53.06666369	0.00000000	-10.17470000	-17.64887000
53.26666368	0.00000000	-16.27707000	-20.71235000
53.46666367	0.00000000	-23.20374000	-21.46284000
53.66666365	0.00000000	-28.93085000	-20.06029000
53.86666364	0.00000000	-31.66830000	-17.74114000
54.06666363	0.00000000	-30.93012000	-15.40969000
54.26666362	0.00000000	-27.48524000	-13.04749000
54.46666361	0.00000000	-22.09030000	-11.22662000
54.66666360	0.00000000	-16.36319000	-10.82062000
54.86666358	0.00000000	-12.13091000	-12.30315000
55.06666357	0.00000000	-10.54995000	-14.16092000
55.26666356	0.00000000	-11.71260000	-15.74188000
55.46666355	0.00000000	-15.15748000	-16.85531000
55.66666354	0.00000000	-20.17716000	-16.81225000
55.86666352	0.00000000	-25.11688000	-15.32357000
56.06666351	0.00000000	-28.59867000	-13.00443000
56.26666350	0.00000000	-29.39222000	-10.76525000
56.46666349	0.00000000	-27.90354000	-9.23966500
56.66666348	0.00000000	-24.78469000	-9.65182000
56.86666346	0.00000000	-20.59547000	-11.60187000
57.06666345	0.00000000	-16.73843000	-15.08981000
57.26666344	0.00000000	-14.40699000	-19.64198000
57.46666343	0.00000000	-13.61959000	-23.04380000
57.66666342	0.00000000	-14.78223000	-24.20029000
57.86666341	0.00000000	-17.43356000	-22.66855000
58.06666339	0.00000000	-20.50935000	-18.81152000
58.26666338	0.00000000	-23.20374000	-13.74262000
58.46666337	0.00000000	-24.78469000	-7.98474400
58.66666336	0.00000000	-25.15994000	-3.05733300
58.86666335	0.00000000	-24.40945000	-1.15034400
59.06666333	0.00000000	-22.50861000	-2.68208600
59.26666332	0.00000000	-20.64468000	-7.33267600
59.46666331	0.00000000	-19.38976000	-14.25320000
59.66666330	0.00000000	-18.63927000	-21.54897000
59.86666329	0.00000000	-18.27633000	-27.31299000
60.06666327	0.00000000	-19.06373000	-30.00738000
60.26666326	0.00000000	-20.50935000	-28.84473000
60.46666325	0.00000000	-21.66585000	-24.20029000
60.66666324	0.00000000	-22.09030000	-16.85531000
60.86666323	0.00000000	-22.09030000	-8.44611200
61.06666322	0.00000000	-21.66585000	-1.52559000
61.26666320	0.00000000	-20.50935000	1.95620100
61.46666319	0.00000000	-19.06373000	1.58710600
61.66666318	0.00000000	-18.27633000	-2.68823800
61.86666317	0.00000000	-18.63927000	-9.98400600
62.06666316	0.00000000	-19.43897000	-18.43627000
62.26666314	0.00000000	-20.97072000	-25.77510000
62.46666313	0.00000000	-22.87770000	-30.42569000
62.66666312	0.00000000	-24.04650000	-31.53912000
62.86666311	0.00000000	-24.82775000	-28.47564000
63.06666310	0.00000000	-24.74163000	-21.92421000
63.26666308	0.00000000	-23.20374000	-13.87795000
63.46666307	0.00000000	-20.55241000	-6.12696800
63.66666306	0.00000000	-17.85802000	-0.73203740
63.86666305	0.00000000	-15.90182000	1.63016700
64.06666304	0.00000000	-14.78223000	0.42445860
64.26666303	0.00000000	-15.20054000	-4.12770700
64.46666301	0.00000000	-17.43356000	-10.67298000
64.66666300	0.00000000	-20.13410000	-17.23056000
64.86666299	0.00000000	-22.50861000	-22.71161000
65.06666298	0.00000000	-24.82775000	-26.19955000
65.26666297	0.00000000	-26.32259000	-27.35605000
65.46666295	0.00000000	-26.32259000	-25.82431000
65.66666294	0.00000000	-24.78469000	-22.01033000
65.86666293	0.00000000	-22.13336000	-17.36589000
66.06666292	0.00000000	-19.48204000	-12.72146000
66.26666291	0.00000000	-17.90108000	-8.82135800
66.46666289	0.00000000	-17.48277000	-6.44685000
66.66666288	0.00000000	-17.90108000	-5.24729300
66.86666287	0.00000000	-19.48204000	-5.29035400
67.06666286	0.00000000	-22.09030000	-6.82209600
67.26666285	0.00000000	-24.36639000	-9.51648500
67.46666284	0.00000000	-25.15994000	-12.58612000
67.66666282	0.00000000	-24.74163000	-15.36663000
67.86666281	0.00000000	-22.82849000	-17.78420000
68.06666280	0.00000000	-19.76501000	-20.52780000
68.26666279	0.00000000	-17.10753000	-23.12992000
68.46666278	0.00000000	-15.20054000	-24.24335000
68.66666276	0.00000000	-15.24975000	-23.12992000
68.86666275	0.00000000	-17.48277000	-20.39247000
69.06666274	0.00000000	-20.59547000	-16.52928000
69.26666273	0.00000000	-24.13263000	-11.84178000
69.46666272	0.00000000	-27.94660000	-7.60949800
69.66666270	0.00000000	-30.55487000	-4.12770700
69.86666269	0.00000000	-30.55487000	-2.63902500
70.06666268	0.00000000	-27.90354000	-3.75246000
70.26666267	0.00000000	-23.62205000	-6.86515700
70.46666266	0.00000000	-18.59621000	-11.51575000
70.66666265	0.00000000	-13.57652000	-16.89837000
70.86666263	0.00000000	-10.13164000	-21.54897000
71.06666262	0.00000000	-9.01205700	-24.66166000
71.26666261	0.00000000	-10.96826000	-25.78125000
71.46666260	0.00000000	-15.94488000	-24.24335000
71.66666259	0.00000000	-22.09030000	-20.43553000
71.86666257	0.00000000	-27.94660000	-15.83415000
72.06666256	0.00000000	-32.56028000	-11.55881000
72.26666255	0.00000000	-34.83636000	-8.44611200
72.46666254	0.00000000	-33.72293000	-6.90821800
72.66666253	0.00000000	-29.95201000	-7.28346400
72.86666251	0.00000000	-25.20300000	-9.55954600
73.06666250	0.00000000	-19.71580000	-12.58612000
73.26666249	0.00000000	-13.66880000	-15.32357000
73.46666248	0.00000000	-9.85482200	-17.27362000
73.66666247	0.00000000	-9.75639700	-18.43627000
73.86666246	0.00000000	-11.99557000	-18.43627000
74.06666244	0.00000000	-15.94488000	-17.32283000
74.26666243	0.00000000	-20.92766000	-15.83415000
74.46666242	0.00000000	-25.94734000	-14.72072000
74.66666241	0.00000000	-29.39222000	-14.72072000
74.86666240	0.00000000	-30.64714000	-15.83415000
75.06666238	0.00000000	-29.85974000	-17.36589000
75.26666237	0.00000000	-27.57136000	-18.85458000
75.46666236	0.00000000	-24.08957000	-19.55585000
75.66666235	0.00000000	-20.64468000	-18.39321000
75.86666234	0.00000000	-17.90108000	-15.74188000
76.06666232	0.00000000	-16.36319000	-12.62918000
76.26666231	0.00000000	-16.32013000	-9.51648500
76.46666230	0.00000000	-17.43356000	-6.91437000
76.66666229	0.00000000	-18.97145000	-6.17002900
76.86666228	0.00000000	-20.50935000	-8.07086500
77.06666227	0.00000000	-21.71506000	-11.55881000
77.26666225	0.00000000	-22.46555000	-16.20325000
77.46666224	0.00000000	-22.87770000	-21.22293000
77.66666223	0.00000000	-22.50861000	-25.03691000
77.86666222	0.00000000	-22.17643000	-26.93774000
78.06666221	0.00000000	-22.17643000	-25.77510000
78.26666219	0.00000000	-22.55167000	-21.96727000
78.46666218	0.00000000	-23.33907000	-16.89837000
78.66666217	0.00000000	-24.04650000	-11.09744000
78.86666216	0.00000000	-24.40945000	-5.75172200
79.06666215	0.00000000	-23.62205000	-2.63902500
79.26666213	0.00000000	-22.09030000	-2.22071800
79.46666212	0.00000000	-20.13410000	-4.17076700
79.66666211	0.00000000	-17.85802000	-8.40305000
79.86666210	0.00000000	-16.36319000	-13.83489000
80.06666209	0.00000000	-16.32013000	-19.22982000
80.26666208	0.00000000	-17.48277000	-23.82505000
80.46666206	0.00000000	-19.43897000	-25.78125000
80.66666205	0.00000000	-22.13336000	-25.12918000
80.86666204	0.00000000	-24.82775000	-23.17298000
81.06666203	0.00000000	-26.74089000	-20.01722000
81.26666202	0.00000000	-27.52830000	-15.74188000
81.46666200	0.00000000	-26.74089000	-11.14050000
81.66666199	0.00000000	-24.82775000	-7.33267600
81.86666198	0.00000000	-22.13336000	-5.70866100
82.06666197	0.00000000	-19.43897000	-5.98548200
82.26666196	0.00000000	-17.52584000	-6.77903500
82.46666194	0.00000000	-16.73843000	-8.40305000
82.66666193	0.00000000	-17.48277000	-11.14050000
82.86666192	0.00000000	-18.97145000	-14.62844000
83.06666191	0.00000000	-20.55241000	-18.47933000
83.26666190	0.00000000	-22.13336000	-21.54897000
83.46666189	0.00000000	-23.67126000	-23.17298000
83.66666187	0.00000000	-24.78469000	-23.54823000
83.86666186	0.00000000	-24.82775000	-22.75467000
84.06666185	0.00000000	-24.08957000	-20.39247000
84.26666184	0.00000000	-23.33907000	-16.94759000
84.46666183	0.00000000	-22.55167000	-13.04749000
84.66666181	0.00000000	-22.17643000	-9.55954600
84.86666180	0.00000000	-22.13336000	-6.82209600
85.06666179	0.00000000	-22.13336000	-5.33341500
85.26666178	0.00000000	-22.13336000	-5.75172200
85.46666177	0.00000000	-22.09030000	-8.44611200
85.66666175	0.00000000	-21.71506000	-12.67224000
85.86666174	0.00000000	-20.97072000	-17.32283000
86.06666173	0.00000000	-20.59547000	-21.59203000
86.26666172	0.00000000	-20.59547000	-24.66166000
86.46666171	0.00000000	-21.01993000	-25.82431000
86.66666170	0.00000000	-22.17643000	-24.66166000
86.86666168	0.00000000	-23.71432000	-21.54897000
87.06666167	0.00000000	-25.25221000	-16.89837000
87.26666166	0.00000000	-26.36565000	-11.55881000
87.46666165	0.00000000	-26.40871000	-7.37573800
87.66666164	0.00000000	-25.62746000	-5.79478300
87.86666162	0.00000000	-24.45866000	-6.86515700
88.06666161	0.00000000	-22.50861000	-9.60875900
88.26666160	0.00000000	-20.64468000	-13.51501000
88.46666159	0.00000000	-19.43897000	-18.47933000
88.66666158	0.00000000	-19.06373000	-22.66855000
88.86666156	0.00000000	-19.43897000	-24.61860000
89.06666155	0.00000000	-20.59547000	-24.24335000
89.26666154	0.00000000	-22.13336000	-21.54897000
89.46666153	0.00000000	-23.71432000	-17.32283000
89.66666152	0.00000000	-25.20300000	-12.72146000
89.86666151	0.00000000	-25.99040000	-8.86441900
90.06666149	0.00000000	-25.62746000	-6.95743000
90.26666148	0.00000000	-24.87697000	-7.33267600
90.46666147	0.00000000	-23.71432000	-10.02707000
90.66666146	0.00000000	-22.55167000	-14.21014000
90.86666145	0.00000000	-21.75812000	-18.43627000
91.06666143	0.00000000	-20.97072000	-21.54897000
91.26666142	0.00000000	-20.64468000	-23.08686000
91.46666141	0.00000000	-20.97072000	-22.66855000
91.66666140	0.00000000	-21.71506000	-19.97416000
91.86666139	0.00000000	-22.09030000	-15.74188000
92.06666137	0.00000000	-22.13336000	-11.18356000
92.26666136	0.00000000	-22.13336000	-7.70177100
92.46666135	0.00000000	-22.13336000	-6.58218500
92.66666134	0.00000000	-22.17643000	-7.70177100
92.86666133	0.00000000	-22.60088000	-11.18356000
93.06666132	0.00000000	-23.71432000	-15.74188000
93.26666130	0.00000000	-24.82775000	-19.97416000
93.46666129	0.00000000	-25.25221000	-22.66855000
93.66666128	0.00000000	-25.25221000	-23.03765000
93.86666127	0.00000000	-24.82775000	-21.13066000
94.06666126	0.00000000	-23.67126000	-17.32283000
94.26666124	0.00000000	-22.09030000	-13.09670000
94.46666123	0.00000000	-20.17716000	-9.60875900
94.66666122	0.00000000	-18.27633000	-7.33267600
94.86666121	0.00000000	-17.52584000	-7.37573800
95.06666120	0.00000000	-17.85802000	-9.98400600
95.26666118	0.00000000	-19.06373000	-13.83489000
95.46666117	0.00000000	-21.01993000	-17.64887000
95.66666116	0.00000000	-23.75738000	-20.75541000
95.86666115	0.00000000	-26.78395000	-21.92421000
96.06666114	0.00000000	-29.10925000	-21.54897000
96.26666113	0.00000000	-29.85974000	-19.59892000
96.46666111	0.00000000	-29.10925000	-16.16018000
96.66666110	0.00000000	-26.78395000	-12.76452000
96.86666109	0.00000000	-23.67126000	-10.40231000
97.06666108	0.00000000	-20.17716000	-9.60875900
97.26666107	0.00000000	-16.69537000	-9.98400600
97.46666105	0.00000000	-14.40699000	-11.55881000
97.66666104	0.00000000	-13.66880000	-14.21014000
97.86666103	0.00000000	-15.20054000	-16.85531000
98.06666102	0.00000000	-18.63927000	-18.43627000
98.26666101	0.00000000	-22.50861000	-18.85458000
98.46666099	0.00000000	-26.40871000	-18.47933000
98.66666098	0.00000000	-29.48450000	-17.32283000
98.86666097	0.00000000	-31.06545000	-15.83415000
99.06666096	0.00000000	-31.06545000	-14.67150000
99.26666095	0.00000000	-29.48450000	-14.25320000
99.46666094	0.00000000	-26.40871000	-14.21014000
99.66666092	0.00000000	-22.55167000	-14.21014000
99.86666091	0.00000000	-19.06373000	-14.25320000
100.06666090	0.00000000	-16.36319000	-14.58538000
100.26666089	0.00000000	-15.20054000	-14.94833000
100.46666088	0.00000000	-15.94488000	-14.58538000
100.66666086	0.00000000	-17.85802000	-14.25320000
100.86666085	0.00000000	-20.59547000	-14.21014000
101.06666084	0.00000000	-23.67126000	-14.25320000
101.26666083	0.00000000	-26.40871000	-14.72072000
101.46666082	0.00000000	-28.36491000	-16.25246000
101.66666080	0.00000000	-29.52756000	-18.47933000
101.86666079	0.00000000	-29.48450000	-19.97416000
102.06666078	0.00000000	-27.98966000	-20.01722000
102.26666077	0.00000000	-25.67052000	-18.85458000
102.46666076	0.00000000	-23.33907000	-16.94759000
102.66666075	0.00000000	-20.97072000	-14.58538000
102.86666073	0.00000000	-19.06373000	-12.30315000
103.06666072	0.00000000	-17.90108000	-10.35310000
103.26666071	0.00000000	-17.94414000	-9.65182000
103.46666070	0.00000000	-19.43897000	-10.40231000
103.66666069	0.00000000	-21.71506000	-12.72146000
103.86666067	0.00000000	-23.67126000	-15.78494000
104.06666066	0.00000000	-25.29527000	-18.85458000
104.26666065	0.00000000	-26.78395000	-21.17372000
104.46666064	0.00000000	-27.57136000	-21.92421000
104.66666063	0.00000000	-27.15920000	-21.17372000
104.86666061	0.00000000	-26.08268000	-18.85458000
105.06666060	0.00000000	-24.50787000	-15.83415000
105.26666059	0.00000000	-23.33907000	-13.13976000
105.46666058	0.00000000	-22.13336000	-11.55881000
105.66666057	0.00000000	-21.06299000	-11.14050000
105.86666056	0.00000000	-21.06299000	-11.51575000
106.06666054	0.00000000	-22.17643000	-12.72146000
106.26666053	0.00000000	-23.67126000	-14.62844000
106.46666052	0.00000000	-24.82775000	-16.90453000
106.66666051	0.00000000	-25.25221000	-18.43627000
106.86666050	0.00000000	-25.25221000	-18.85458000
107.06666048	0.00000000	-24.82775000	-18.43627000
107.26666047	0.00000000	-23.71432000	-16.94759000
107.46666046	0.00000000	-22.60088000	-15.04675000
107.66666045	0.00000000	-22.17643000	-13.87795000
107.86666044	0.00000000	-22.13336000	-13.09670000
108.06666042	0.00000000	-22.17643000	-13.09670000
108.26666041	0.00000000	-22.60088000	-13.87795000
108.46666040	0.00000000	-23.75738000	-15.04675000
108.66666039	0.00000000	-25.25221000	-16.94759000
108.86666038	0.00000000	-26.40871000	-18.39321000
109.06666037	0.00000000	-26.78395000	-18.47933000
109.26666035	0.00000000	-26.36565000	-17.69808000
109.46666034	0.00000000	-24.87697000	-16.52928000
109.66666033	0.00000000	-22.96998000	-14.62844000
109.86666032	0.00000000	-21.80118000	-13.09670000
110.06666031	0.00000000	-20.97072000	-12.29700000
110.26666029	0.00000000	-20.64468000	-11.93405000
110.46666028	0.00000000	-21.01993000	-12.72146000
110.66666027	0.00000000	-22.17643000	-14.21014000
110.86666026	0.00000000	-23.71432000	-15.78494000
111.06666025	0.00000000	-25.25221000	-17.32283000
111.26666023	0.00000000	-26.40871000	-18.47933000
111.46666022	0.00000000	-26.78395000	-18.85458000
111.66666021	0.00000000	-26.40871000	-18.47933000
111.86666020	0.00000000	-25.25221000	-17.32283000
112.06666019	0.00000000	-23.75738000	-15.83415000
112.26666018	0.00000000	-22.60088000	-14.67150000
112.46666016	0.00000000	-22.17643000	-14.25320000
112.66666015	0.00000000	-22.13336000	-14.21014000
112.86666014	0.00000000	-22.13336000	-14.21014000
113.06666013	0.00000000	-22.17643000	-14.25320000
113.26666012	0.00000000	-22.60088000	-14.62844000
113.46666010	0.00000000	-23.71432000	-15.36663000
113.66666009	0.00000000	-24.82775000	-15.69267000
113.86666008	0.00000000	-25.25221000	-15.40969000
114.06666007	0.00000000	-25.29527000	-15.04675000
114.26666006	0.00000000	-25.25221000	-15.45891000
114.46666004	0.00000000	-24.87697000	-16.16018000
114.66666003	0.00000000	-24.13263000	-16.94759000
114.86666002	0.00000000	-23.75738000	-17.32283000
115.06666001	0.00000000	-23.71432000	-17.36589000
115.26666000	0.00000000	-23.71432000	-17.36589000
115.46665999	0.00000000	-23.71432000	-17.36589000
115.66665997	0.00000000	-23.71432000	-17.32283000
115.86665996	0.00000000	-23.75738000	-16.94759000
116.06665995	0.00000000	-24.18184000	-16.20325000
116.26665994	0.00000000	-25.25221000	-15.78494000
116.46665993	0.00000000	-25.99040000	-15.36663000
116.66665991	0.00000000	-25.67052000	-14.62844000
116.86665990	0.00000000	-25.33834000	-14.30241000
117.06665989	0.00000000	-25.25221000	-14.62844000
117.26665988	0.00000000	-24.87697000	-15.40969000
117.46665987	0.00000000	-24.08957000	-16.16018000
117.66665985	0.00000000	-23.33907000	-16.94759000
117.86665984	0.00000000	-22.55167000	-17.32283000
118.06665983	0.00000000	-22.17643000	-17.36589000
118.26665982	0.00000000	-22.17643000	-17.36589000
118.46665981	0.00000000	-22.60088000	-17.32283000
118.66665980	0.00000000	-23.75738000	-16.94759000
118.86665978	0.00000000	-25.25221000	-16.16018000
119.06665977	0.00000000	-26.45792000	-15.40969000
119.26665976	0.00000000	-27.20841000	-14.62844000
119.46665975	0.00000000	-27.57136000	-14.25320000
119.66665974	0.00000000	-26.83317000	-14.21014000
119.86665972	0.00000000	-25.71358000	-14.21014000
120.06665971	0.00000000	-24.87697000	-14.21014000
120.26665970	0.00000000	-23.67126000	-14.25320000
120.46665969	0.00000000	-22.17643000	-14.62844000
120.66665968	0.00000000	-21.01993000	-15.36663000
120.86665966	0.00000000	-20.64468000	-15.78494000
121.06665965	0.00000000	-21.01993000	-16.20325000
121.26665964	0.00000000	-22.17643000	-16.94759000
121.46665963	0.00000000	-23.71432000	-17.32283000
121.66665962	0.00000000	-25.25221000	-17.32283000
121.86665961	0.00000000	-26.40871000	-16.94759000
122.06665959	0.00000000	-26.83317000	-16.20325000
122.26665958	0.00000000	-26.87623000	-15.78494000
122.46665957	0.00000000	-26.83317000	-15.36663000
122.66665956	0.00000000	-26.40871000	-14.62844000
122.86665955	0.00000000	-25.29527000	-14.21014000
123.06665953	0.00000000	-24.13263000	-13.83489000
123.26665952	0.00000000	-23.33907000	-13.46580000
123.46665951	0.00000000	-22.55167000	-13.87795000
123.66665950	0.00000000	-22.17643000	-14.58538000
123.86665949	0.00000000	-22.17643000	-15.40969000
124.06665947	0.00000000	-22.55167000	-16.16018000
124.26665946	0.00000000	-23.33907000	-16.94759000
124.46665945	0.00000000	-24.08957000	-17.32283000
124.66665944	0.00000000	-24.92003000	-17.36589000
124.86665943	0.00000000	-25.67052000	-17.32283000
125.06665942	0.00000000	-26.45792000	-16.94759000
125.26665940	0.00000000	-26.83317000	-16.20325000
125.46665939	0.00000000	-26.83317000	-15.78494000
125.66665938	0.00000000	-26.40871000	-15.36663000
125.86665937	0.00000000	-25.29527000	-14.62844000
126.06665936	0.00000000	-24.18184000	-14.30241000
126.26665934	0.00000000	-23.71432000	-14.62844000
126.46665933	0.00000000	-23.29601000	-15.36663000
126.66665932	0.00000000	-22.60088000	-15.74188000
126.86665931	0.00000000	-22.60088000	-15.82800000
127.06665930	0.00000000	-23.33907000	-16.20325000
127.26665928	0.00000000	-24.13263000	-16.94759000
127.46665927	0.00000000	-25.29527000	-17.32283000
127.66665926	0.00000000	-26.40871000	-17.36589000
127.86665925	0.00000000	-26.83317000	-17.32283000
128.06665924	0.00000000	-26.83317000	-16.94759000
128.26665923	0.00000000	-26.45792000	-16.20325000
128.46665921	0.00000000	-25.67052000	-15.82800000
128.66665920	0.00000000	-24.87697000	-15.78494000
128.86665919	0.00000000	-23.71432000	-15.78494000
129.06665918	0.00000000	-22.60088000	-15.78494000
129.26665917	0.00000000	-22.22564000	-15.78494000
129.46665915	0.00000000	-22.60088000	-15.82800000
129.66665914	0.00000000	-23.71432000	-16.16018000
129.86665913	0.00000000	-24.87697000	-16.52928000
130.06665912	0.00000000	-25.67052000	-16.16018000
130.26665911	0.00000000	-26.45792000	-15.82800000
130.46665909	0.00000000	-26.78395000	-15.78494000
130.66665908	0.00000000	-26.45792000	-15.78494000
130.86665907	0.00000000	-25.67052000	-15.78494000
131.06665906	0.00000000	-24.92003000	-15.78494000
131.26665905	0.00000000	-24.13263000	-15.78494000
131.46665904	0.00000000	-23.75738000	-15.82800000
131.66665902	0.00000000	-23.71432000	-16.20325000
131.86665901	0.00000000	-23.75738000	-16.94759000
132.06665900	0.00000000	-24.13263000	-17.32283000
132.26665899	0.00000000	-24.87697000	-17.36589000
132.46665898	0.00000000	-25.29527000	-17.36589000
132.66665896	0.00000000	-25.71358000	-17.32283000
132.86665895	0.00000000	-26.40871000	-16.94759000
133.06665894	0.00000000	-26.40871000	-16.16018000
133.26665893	0.00000000	-25.71358000	-15.40969000
133.46665892	0.00000000	-25.33834000	-14.62844000
133.66665890	0.00000000	-25.29527000	-14.25320000
133.86665889	0.00000000	-25.29527000	-14.25320000
134.06665888	0.00000000	-25.29527000	-14.67150000
134.26665887	0.00000000	-25.29527000	-15.78494000
134.46665886	0.00000000	-25.29527000	-16.94759000
134.66665885	0.00000000	-25.29527000	-17.74114000
134.86665883	0.00000000	-25.29527000	-18.52854000
135.06665882	0.00000000	-25.25221000	-18.85458000
135.26665881	0.00000000	-24.92003000	-18.52854000
135.46665880	0.00000000	-24.55093000	-17.78420000
135.66665879	0.00000000	-24.92003000	-17.36589000
135.86665877	0.00000000	-25.25221000	-16.89837000
136.06665876	0.00000000	-25.29527000	-15.78494000
136.26665875	0.00000000	-25.33834000	-14.72072000
136.46665874	0.00000000	-25.71358000	-14.67150000
136.66665873	0.00000000	-26.45792000	-15.36663000
136.86665871	0.00000000	-26.83317000	-15.78494000
137.06665870	0.00000000	-26.87623000	-16.20325000
137.26665869	0.00000000	-26.78395000	-16.94759000
137.46665868	0.00000000	-26.03961000	-17.32283000
137.66665867	0.00000000	-24.55093000	-17.36589000
137.86665866	0.00000000	-23.80659000	-17.36589000
138.06665864	0.00000000	-23.71432000	-17.36589000
138.26665863	0.00000000	-23.75738000	-17.36589000
138.46665862	0.00000000	-24.13263000	-17.36589000
138.66665861	0.00000000	-24.92003000	-17.32283000
138.86665860	0.00000000	-25.67052000	-16.94759000
139.06665858	0.00000000	-26.45792000	-16.20325000
139.26665857	0.00000000	-26.83317000	-15.78494000
139.46665856	0.00000000	-26.87623000	-15.36663000
139.66665855	0.00000000	-26.83317000	-14.62844000
139.86665854	0.00000000	-26.45792000	-14.30241000
140.06665852	0.00000000	-25.67052000	-14.62844000
140.26665851	0.00000000	-24.92003000	-15.36663000
140.46665850	0.00000000	-24.13263000	-15.78494000
140.66665849	0.00000000	-23.80659000	-16.20325000
140.86665848	0.00000000	-24.13263000	-16.99065000
141.06665847	0.00000000	-24.92003000	-17.69808000
141.26665845	0.00000000	-25.67052000	-18.11024000
141.46665844	0.00000000	-26.45792000	-17.69808000
141.66665843	0.00000000	-26.83317000	-16.99065000
141.86665842	0.00000000	-26.83317000	-16.16018000
142.06665841	0.00000000	-26.45792000	-15.40969000
142.26665839	0.00000000	-25.71358000	-14.62844000
142.46665838	0.00000000	-25.29527000	-14.25320000
142.66665837	0.00000000	-24.92003000	-14.25320000
142.86665836	0.00000000	-24.55093000	-14.67150000
143.06665835	0.00000000	-24.92003000	-15.78494000
143.26665834	0.00000000	-25.25221000	-16.89837000
143.46665832	0.00000000	-25.29527000	-17.32283000
143.66665831	0.00000000	-25.29527000	-17.36589000
143.86665830	0.00000000	-25.29527000	-17.36589000
144.06665829	0.00000000	-25.29527000	-17.36589000
144.26665828	0.00000000	-25.29527000	-17.32283000
144.46665826	0.00000000	-25.25221000	-16.89837000
144.66665825	0.00000000	-24.92003000	-15.78494000
144.86665824	0.00000000	-24.55093000	-14.72072000
145.06665823	0.00000000	-24.92003000	-14.67150000
145.26665822	0.00000000	-25.25221000	-15.36663000
145.46665820	0.00000000	-25.33834000	-15.74188000
145.66665819	0.00000000	-25.71358000	-15.82800000
145.86665818	0.00000000	-26.40871000	-16.20325000
146.06665817	0.00000000	-26.45792000	-16.94759000
146.26665816	0.00000000	-26.13189000	-17.32283000
146.46665815	0.00000000	-26.45792000	-17.36589000
146.66665813	0.00000000	-26.40871000	-17.36589000
146.86665812	0.00000000	-25.71358000	-17.36589000
147.06665811	0.00000000	-25.33834000	-17.36589000
147.26665810	0.00000000	-25.29527000	-17.32283000
147.46665809	0.00000000	-25.29527000	-16.94759000
147.66665807	0.00000000	-25.29527000	-16.20325000
147.86665806	0.00000000	-25.33834000	-15.82800000
148.06665805	0.00000000	-25.71358000	-15.78494000
148.26665804	0.00000000	-26.45792000	-15.78494000
148.46665803	0.00000000	-26.83317000	-15.82800000
148.66665801	0.00000000	-26.87623000	-16.20325000
148.86665800	0.00000000	-26.87623000	-16.94759000
149.06665799	0.00000000	-26.83317000	-17.32283000
149.26665798	0.00000000	-26.45792000	-17.36589000
149.46665797	0.00000000	-25.71358000	-17.36589000
149.66665796	0.00000000	-25.33834000	-17.36589000
149.86665794	0.00000000	-25.29527000	-17.36589000
150.06665793	0.00000000	-25.29527000	-17.36589000
150.26665792	0.00000000	-25.33834000	-17.32283000
150.46665791	0.00000000	-25.71358000	-16.99065000
150.66665790	0.00000000	-26.45792000	-16.57849000
150.86665788	0.00000000	-26.83317000	-16.57234000
151.06665787	0.00000000	-26.87623000	-16.16018000
151.26665786	0.00000000	-26.87623000	-15.82800000
151.46665785	0.00000000	-26.87623000	-15.82800000
151.66665784	0.00000000	-26.87623000	-16.20325000
151.86665782	0.00000000	-26.83317000	-16.94759000
152.06665781	0.00000000	-26.50098000	-17.32283000
152.26665780	0.00000000	-26.08883000	-17.36589000
152.46665779	0.00000000	-26.08268000	-17.36589000
152.66665778	0.00000000	-25.67052000	-17.36589000
152.86665777	0.00000000	-25.33834000	-17.36589000
153.06665775	0.00000000	-25.29527000	-17.36589000
153.26665774	0.00000000	-25.33834000	-17.36589000
153.46665773	0.00000000	-25.71358000	-17.32283000
153.66665772	0.00000000	-26.50098000	-16.94759000
153.86665771	0.00000000	-27.20841000	-16.20325000
154.06665769	0.00000000	-27.62057000	-15.82800000
154.26665768	0.00000000	-27.25147000	-15.78494000
154.46665767	0.00000000	-26.91929000	-15.78494000
154.66665766	0.00000000	-26.87623000	-15.78494000
154.86665765	0.00000000	-26.87623000	-15.82800000
155.06665763	0.00000000	-26.83317000	-16.20325000
155.26665762	0.00000000	-26.45792000	-16.94759000
155.46665761	0.00000000	-25.71358000	-17.32283000
155.66665760	0.00000000	-25.33834000	-17.36589000
155.86665759	0.00000000	-25.29527000	-17.36589000
156.06665758	0.00000000	-25.33834000	-17.36589000
156.26665756	0.00000000	-25.71358000	-17.32283000
156.46665755	0.00000000	-26.45792000	-16.94759000
156.66665754	0.00000000	-26.83317000	-16.20325000
156.86665753	0.00000000	-26.87623000	-15.82800000
157.06665752	0.00000000	-26.87623000	-15.78494000
157.26665750	0.00000000	-26.87623000	-15.78494000
157.46665749	0.00000000	-26.87623000	-15.78494000
157.66665748	0.00000000	-26.87623000	-15.78494000
157.86665747	0.00000000	-26.87623000	-15.82800000
158.06665746	0.00000000	-26.83317000	-16.20325000
158.26665744	0.00000000	-26.45792000	-16.94759000
158.46665743	0.00000000	-25.71358000	-17.32283000
158.66665742	0.00000000	-25.33834000	-17.36589000
158.86665741	0.00000000	-25.29527000	-17.36589000
159.06665740	0.00000000	-25.33834000	-17.36589000
159.26665739	0.00000000	-25.67052000	-17.36589000
159.46665737	0.00000000	-26.08268000	-17.32283000
159.66665736	0.00000000	-26.08883000	-16.94759000
159.86665735	0.00000000	-26.50098000	-16.20325000
160.06665734	0.00000000	-26.83317000	-15.82800000
160.26665733	0.00000000	-26.87623000	-15.78494000
160.46665731	0.00000000	-26.87623000	-15.78494000
160.66665730	0.00000000	-26.87623000	-15.82800000
160.86665729	0.00000000	-26.87623000	-16.20325000
161.06665728	0.00000000	-26.87623000	-16.94759000
161.26665727	0.00000000	-26.87623000	-17.32283000
161.46665725	0.00000000	-26.87623000	-17.36589000
161.66665724	0.00000000	-26.87623000	-17.36589000
161.86665723	0.00000000	-26.87623000	-17.36589000
162.06665722	0.00000000	-26.87623000	-17.36589000
162.26665721	0.00000000	-26.87623000	-17.32283000
162.46665720	0.00000000	-26.87623000	-16.94759000
162.66665718	0.00000000	-26.87623000	-16.25246000
162.86665717	0.00000000	-26.87623000	-16.25246000
163.06665716	0.00000000	-26.91929000	-16.94759000
163.26665715	0.00000000	-27.29453000	-17.32283000
163.46665714	0.00000000	-28.03888000	-17.36589000
163.66665712	0.00000000	-28.41412000	-17.36589000
163.86665711	0.00000000	-28.41412000	-17.32283000
164.06665710	0.00000000	-28.08194000	-16.99065000
164.26665709	0.00000000	-27.66978000	-16.62155000
164.46665708	0.00000000	-27.66363000	-16.99065000
164.66665706	0.00000000	-27.25147000	-17.36589000
164.86665705	0.00000000	-26.91929000	-17.74114000
165.06665704	0.00000000	-26.87623000	-18.11024000
165.26665703	0.00000000	-26.87623000	-17.74114000
165.46665702	0.00000000	-26.87623000	-17.40895000
165.66665701	0.00000000	-26.87623000	-17.36589000
165.86665699	0.00000000	-26.87623000	-17.36589000
166.06665698	0.00000000	-26.91929000	-17.36589000
166.26665697	0.00000000	-27.29453000	-17.36589000
166.46665696	0.00000000	-28.03888000	-17.36589000
166.66665695	0.00000000	-28.41412000	-17.36589000
166.86665693	0.00000000	-28.45718000	-17.36589000
167.06665692	0.00000000	-28.45718000	-17.36589000
167.26665691	0.00000000	-28.41412000	-17.36589000
167.46665690	0.00000000	-28.03888000	-17.36589000
167.66665689	0.00000000	-27.29453000	-17.36589000
167.86665687	0.00000000	-26.91929000	-17.36589000
168.06665686	0.00000000	-26.87623000	-17.36589000
168.26665685	0.00000000	-26.87623000	-17.36589000
168.46665684	0.00000000	-26.87623000	-17.36589000
168.66665683	0.00000000	-26.87623000	-17.36589000
168.86665682	0.00000000	-26.87623000	-17.36589000
169.06665680	0.00000000	-26.87623000	-17.36589000
169.26665679	0.00000000	-26.91929000	-17.36589000
169.46665678	0.00000000	-27.25147000	-17.36589000
169.66665677	0.00000000	-27.62057000	-17.36589000
169.86665676	0.00000000	-27.25147000	-17.36589000
170.06665674	0.00000000	-26.91929000	-17.36589000
170.26665673	0.00000000	-26.87623000	-17.36589000
170.46665672	0.00000000	-26.87623000	-17.36589000
170.66665671	0.00000000	-26.87623000	-17.36589000
170.86665670	0.00000000	-26.87623000	-17.36589000
171.06665668	0.00000000	-26.87623000	-17.36589000
171.26665667	0.00000000	-26.87623000	-17.36589000
171.46665666	0.00000000	-26.87623000	-17.36589000
171.66665665	0.00000000	-26.87623000	-17.36589000
171.86665664	0.00000000	-26.87623000	-17.36589000
172.06665663	0.00000000	-26.87623000	-17.36589000
172.26665661	0.00000000	-26.87623000	-17.36589000
172.46665660	0.00000000	-26.87623000	-17.36589000
172.66665659	0.00000000	-26.91929000	-17.36589000
172.86665658	0.00000000	-27.25147000	-17.36589000
173.06665657	0.00000000	-27.62057000	-17.32283000
173.26665655	0.00000000	-27.25147000	-16.94759000
173.46665654	0.00000000	-26.91929000	-16.25246000
173.66665653	0.00000000	-26.87623000	-16.20325000
173.86665652	0.00000000	-26.87623000	-16.57234000
174.06665651	0.00000000	-26.87623000	-16.57849000
174.26665649	0.00000000	-26.87623000	-16.99065000
174.46665648	0.00000000	-26.87623000	-17.32283000
174.66665647	0.00000000	-26.87623000	-17.36589000
174.86665646	0.00000000	-26.91929000	-17.36589000
175.06665645	0.00000000	-27.25147000	-17.36589000
175.26665644	0.00000000	-27.62057000	-17.36589000
175.46665642	0.00000000	-27.25147000	-17.36589000
175.66665641	0.00000000	-26.96850000	-17.36589000
175.86665640	0.00000000	-27.25147000	-17.36589000
176.06665639	0.00000000	-27.62057000	-17.36589000
176.26665638	0.00000000	-27.25147000	-17.36589000
176.46665636	0.00000000	-26.91929000	-17.36589000
176.66665635	0.00000000	-26.87623000	-17.36589000
176.86665634	0.00000000	-26.87623000	-17.36589000
177.06665633	0.00000000	-26.91929000	-17.36589000
177.26665632	0.00000000	-27.29453000	-17.36589000
177.46665630	0.00000000	-28.03888000	-17.36589000
177.66665629	0.00000000	-28.41412000	-17.36589000
177.86665628	0.00000000	-28.45718000	-17.40895000
178.06665627	0.00000000	-28.41412000	-17.74114000
178.26665626	0.00000000	-28.08194000	-18.11024000
178.46665625	0.00000000	-27.71284000	-17.78420000
178.66665623	0.00000000	-28.08194000	-17.78420000
178.86665622	0.00000000	-28.36491000	-18.11024000
179.06665621	0.00000000	-28.08194000	-17.74114000
179.26665620	0.00000000	-27.71284000	-17.40895000
179.46665619	0.00000000	-28.03888000	-17.36589000
179.66665617	0.00000000	-28.03888000	-17.36589000
179.86665616	0.00000000	-27.71284000	-17.40895000
180.06665615	0.00000000	-28.08194000	-17.78420000
180.26665614	0.00000000	-28.41412000	-18.52854000
180.46665613	0.00000000	-28.45718000	-18.85458000
180.66665611	0.00000000	-28.45718000	-18.57160000
180.86665610	0.00000000	-28.45718000	-18.15945000
181.06665609	0.00000000	-28.45718000	-18.15330000
181.26665608	0.00000000	-28.45718000	-17.74114000
181.46665607	0.00000000	-28.45718000	-17.40895000
181.66665606	0.00000000	-28.45718000	-17.36589000
181.86665604	0.00000000	-28.45718000	-17.36589000
182.06665603	0.00000000	-28.45718000	-17.36589000
182.26665602	0.00000000	-28.45718000	-17.36589000
182.46665601	0.00000000	-28.45718000	-17.36589000
182.66665600	0.00000000	-28.45718000	-17.36589000
182.86665598	0.00000000	-28.45718000	-17.36589000
183.06665597	0.00000000	-28.45718000	-17.40895000
183.26665596	0.00000000	-28.45718000	-17.74114000
183.46665595	0.00000000	-28.45718000	-18.11024000
183.66665594	0.00000000	-28.45718000	-17.74114000
183.86665592	0.00000000	-28.45718000	-17.40895000
184.06665591	0.00000000	-28.45718000	-17.36589000
184.26665590	0.00000000	-28.45718000	-17.36589000
184.46665589	0.00000000	-28.45718000	-17.36589000
184.66665588	0.00000000	-28.45718000	-17.32283000
184.86665587	0.00000000	-28.45718000	-16.99065000
185.06665585	0.00000000	-28.45718000	-16.62155000
185.26665584	0.00000000	-28.45718000	-16.99065000
185.46665583	0.00000000	-28.45718000	-17.32283000
185.66665582	0.00000000	-28.45718000	-17.36589000
185.86665581	0.00000000	-28.45718000	-17.36589000
186.06665579	0.00000000	-28.45718000	-17.40895000
186.26665578	0.00000000	-28.45718000	-17.78420000
186.46665577	0.00000000	-28.45718000	-18.47933000
186.66665576	0.00000000	-28.45718000	-18.47933000
186.86665575	0.00000000	-28.45718000	-17.78420000
187.06665573	0.00000000	-28.45718000	-17.40895000
187.26665572	0.00000000	-28.45718000	-17.32283000
187.46665571	0.00000000	-28.45718000	-16.94759000
187.66665570	0.00000000	-28.45718000	-16.20325000
187.86665569	0.00000000	-28.45718000	-15.82800000
188.06665568	0.00000000	-28.45718000	-15.78494000
188.26665566	0.00000000	-28.45718000	-15.82800000
188.46665565	0.00000000	-28.45718000	-16.20325000
188.66665564	0.00000000	-28.45718000	-16.94759000
188.86665563	0.00000000	-28.45718000	-17.32283000
189.06665562	0.00000000	-28.45718000	-17.36589000
189.26665560	0.00000000	-28.45718000	-17.40895000
189.46665559	0.00000000	-28.45718000	-17.74114000
189.66665558	0.00000000	-28.45718000	-18.11024000
189.86665557	0.00000000	-28.45718000	-17.74114000
190.06665556	0.00000000	-28.45718000	-17.40895000
190.26665554	0.00000000	-28.45718000	-17.36589000
190.46665553	0.00000000	-28.45718000	-17.36589000
190.66665552	0.00000000	-28.45718000	-17.36589000
190.86665551	0.00000000	-28.45718000	-17.36589000
191.06665550	0.00000000	-28.45718000	-17.36589000
191.26665549	0.00000000	-28.45718000	-17.36589000
191.46665547	0.00000000	-28.45718000	-17.36589000
191.66665546	0.00000000	-28.45718000	-17.36589000
191.86665545	0.00000000	-28.45718000	-17.36589000
192.06665544	0.00000000	-28.45718000	-17.36589000
192.26665543	0.00000000	-28.45718000	-17.40895000
192.46665541	0.00000000	-28.45718000	-17.78420000
192.66665540	0.00000000	-28.45718000	-18.52854000
192.86665539	0.00000000	-28.45718000	-18.85458000
193.06665538	0.00000000	-28.50024000	-18.57160000
193.26665537	0.00000000	-28.87549000	-18.20251000
193.46665535	0.00000000	-29.57062000	-18.52854000
193.66665534	0.00000000	-29.57062000	-18.47933000
193.86665533	0.00000000	-28.87549000	-17.78420000
194.06665532	0.00000000	-28.54946000	-17.40895000
194.26665531	0.00000000	-28.83243000	-17.36589000
194.46665530	0.00000000	-29.20152000	-17.36589000
194.66665528	0.00000000	-28.83243000	-17.36589000
194.86665527	0.00000000	-28.50024000	-17.36589000
195.06665526	0.00000000	-28.45718000	-17.36589000
195.26665525	0.00000000	-28.45718000	-17.40895000
195.46665524	0.00000000	-28.50024000	-17.78420000
195.66665522	0.00000000	-28.87549000	-18.52854000
195.86665521	0.00000000	-29.61983000	-18.90379000
196.06665520	0.00000000	-29.99508000	-18.94685000
