Time	Channel A	Channel B	Channel C
(us)	(V)	(mV)	(mV)

-4.49999956	0.00000000	69.57431000	28.42027000
-4.29999957	0.00000000	69.57431000	28.42027000
-4.09999958	0.00000000	69.57431000	28.42027000
-3.89999959	0.00000000	69.57431000	28.42027000
-3.69999960	0.00000000	69.57431000	28.42027000
-3.49999962	0.00000000	69.57431000	28.42027000
-3.29999963	0.00000000	69.57431000	28.42027000
-3.09999964	0.00000000	69.57431000	28.42027000
-2.89999965	0.00000000	69.57431000	28.42027000
-2.69999966	0.00000000	69.57431000	28.42027000
-2.49999968	0.00000000	69.57431000	28.42027000
-2.29999969	0.00000000	69.57431000	28.42027000
-2.09999970	0.00000000	69.57431000	28.42027000
-1.89999971	0.00000000	69.57431000	28.42027000
-1.69999972	0.00000000	69.57431000	28.42027000
-1.49999973	0.00000000	69.57431000	28.42027000
-1.29999975	0.00000000	69.57431000	28.42027000
-1.09999976	0.00000000	69.57431000	28.42027000
-0.89999977	0.00000000	69.57431000	28.37721000
-0.69999978	0.00000000	69.57431000	28.00197000
-0.49999979	0.00000000	69.57431000	27.25763000
-0.29999981	0.15871060	69.57431000	26.93159000
-0.09999982	0.63668800	69.57431000	27.21457000
0.10000017	0.95533960	69.57431000	27.58366000
0.30000016	1.11466500	69.57431000	27.25763000
0.50000015	0.95533960	69.57431000	27.30684000
0.70000013	0.31803640	69.57431000	27.95275000
0.90000012	-0.31803640	69.57431000	27.95275000
1.10000011	-1.27399100	69.57431000	27.30684000
1.30000010	-2.22994600	69.57431000	27.25763000
1.50000009	-2.70792300	69.57431000	27.62672000
1.70000008	-2.54859700	69.57431000	27.63287000
1.90000006	-1.59264300	69.57431000	28.04503000
2.10000005	0.15871060	69.57431000	28.32800000
2.30000004	2.22994600	69.57431000	28.04503000
2.50000003	4.30056600	69.57431000	27.67593000
2.70000002	5.25652100	69.57431000	28.04503000
2.90000000	5.09719500	69.57431000	28.32800000
3.09999999	3.34522600	69.57431000	28.00197000
3.29999998	0.47736220	69.57431000	27.30684000
3.49999997	-3.02657500	69.57431000	27.25763000
3.69999996	-6.05315000	69.57431000	27.58366000
3.89999994	-7.80511800	69.57431000	27.25763000
4.09999993	-7.64579200	69.57431000	27.30684000
4.29999992	-5.57517200	69.57431000	28.00197000
4.49999991	-1.75196900	69.57431000	28.37721000
4.69999990	2.70792300	69.53124000	28.37721000
4.89999989	6.69045300	69.15600000	28.00197000
5.09999987	9.07972400	68.46087000	27.25763000
5.29999986	9.23905000	68.41166000	26.83932000
5.49999985	7.16781500	68.73769000	26.46407000
5.69999984	3.02657500	68.41166000	26.10113000
5.89999983	-1.59264300	68.46087000	26.51329000
6.09999981	-6.05315000	69.15600000	27.17150000
6.29999980	-8.92039900	69.53124000	27.62672000
6.49999979	-9.39837600	69.57431000	27.63287000
6.69999978	-7.64579200	69.57431000	28.04503000
6.89999977	-3.98191400	69.57431000	28.37721000
7.09999975	0.31803640	69.57431000	28.42027000
7.29999974	4.30056600	69.57431000	28.37721000
7.49999973	7.00848900	69.53124000	28.00197000
7.69999972	7.64579200	69.19906000	27.25763000
7.89999971	6.53112700	68.82996000	26.93159000
8.09999970	3.98191400	69.19906000	27.25763000
8.29999968	0.63668800	69.53124000	27.95275000
8.49999967	-2.38927200	69.57431000	28.00197000
8.69999966	-4.45989200	69.57431000	27.67593000
8.89999965	-5.25652100	69.57431000	28.04503000
9.09999964	-4.61921700	69.57431000	28.37721000
9.29999962	-3.02657500	69.57431000	28.42027000
9.49999961	-0.95533960	69.57431000	28.42027000
9.69999960	0.79601380	69.57431000	28.42027000
9.89999959	2.07062000	69.57431000	28.42027000
10.09999958	2.54859700	69.57431000	28.42027000
10.29999956	2.22994600	69.57431000	28.37721000
10.49999955	1.59264300	69.57431000	28.00197000
10.69999954	0.63668800	69.57431000	27.30684000
10.89999953	-0.15871060	69.57431000	27.30684000
11.09999952	-0.63668800	69.57431000	28.00197000
11.29999951	-0.95533960	69.57431000	28.37721000
11.49999949	-0.95533960	69.57431000	28.42027000
11.69999948	-0.79601380	69.57431000	28.37721000
11.89999947	-0.47736220	69.57431000	28.04503000
12.09999946	-0.15871060	69.57431000	27.67593000
12.29999945	-0.15871060	69.57431000	28.04503000
12.49999943	-0.15871060	69.57431000	28.37721000
12.69999942	0.00000000	69.57431000	28.42027000
12.89999941	0.00000000	69.57431000	28.42027000
13.09999940	0.00000000	69.53124000	28.37721000
13.29999939	0.00000000	69.15600000	28.00197000
13.49999937	0.00000000	68.46087000	27.25763000
13.69999936	0.00000000	68.46087000	26.88238000
13.89999935	0.00000000	69.15600000	26.83932000
14.09999934	-0.15871060	69.48203000	26.83932000
14.29999933	-0.15871060	69.19906000	26.83932000
14.49999932	-0.15871060	68.78691000	26.88238000
14.69999930	-0.15871060	68.82381000	27.21457000
14.89999929	0.00000000	68.74384000	27.62672000
15.09999928	0.00000000	68.78075000	27.58981000
15.29999927	0.00000000	68.36859000	27.62672000
15.49999926	0.00000000	68.03641000	27.21457000
15.69999924	0.00000000	67.99335000	26.88238000
15.89999923	0.00000000	67.99335000	26.83932000
16.09999922	0.00000000	67.99335000	26.83932000
16.29999921	0.00000000	67.99335000	26.88238000
16.49999920	0.00000000	68.03641000	27.21457000
16.69999919	-0.15871060	68.41166000	27.58366000
16.89999917	0.00000000	69.15600000	27.21457000
17.09999916	0.00000000	69.57431000	26.88238000
17.29999915	0.00000000	69.99261000	26.83932000
17.49999914	0.00000000	70.73695000	26.83932000
17.69999913	0.00000000	71.06299000	26.83932000
17.89999911	0.00000000	70.68774000	26.83932000
18.09999910	0.00000000	69.53124000	26.83932000
18.29999909	0.00000000	67.99335000	26.83932000
18.49999908	0.00000000	66.40624000	26.83932000
18.69999907	0.00000000	64.86835000	26.83932000
18.89999905	0.00000000	63.75492000	26.83932000
19.09999904	-0.15871060	63.75492000	26.83932000
19.29999903	0.00000000	64.96062000	26.88238000
19.49999902	0.00000000	67.29208000	27.21457000
19.69999901	0.00000000	70.82307000	27.58366000
19.89999900	0.00000000	74.64935000	27.21457000
20.09999898	0.00000000	78.13115000	26.88238000
20.29999897	0.00000000	79.99508000	26.83932000
20.49999896	0.00000000	79.57676000	26.88238000
20.69999895	0.00000000	76.37180000	27.21457000
20.89999894	0.00000000	70.17716000	27.62672000
21.09999892	0.00000000	62.08169000	27.58981000
21.29999891	0.00000000	54.40452000	27.62672000
21.49999890	0.00000000	49.00959000	27.21457000
21.69999889	0.00000000	47.51476000	26.88238000
21.89999888	0.00000000	50.63361000	26.83932000
22.09999886	0.00000000	58.07701000	26.83932000
22.29999885	0.00000000	68.96530000	26.83932000
22.49999884	0.00000000	81.71136000	26.83932000
22.69999883	0.00000000	93.20866000	26.88238000
22.89999882	0.00000000	100.09840000	27.25763000
23.09999881	0.00000000	100.00610000	28.00197000
23.29999879	0.00000000	92.23055000	28.37721000
23.49999878	0.00000000	77.90354000	28.46333000
23.69999877	0.00000000	60.13164000	28.83858000
23.89999876	0.00000000	42.77190000	29.58292000
24.09999875	0.00000000	30.11811000	29.90895000
24.29999873	0.00000000	25.92274000	29.53371000
24.49999872	0.00000000	31.74212000	28.37721000
24.69999871	0.00000000	46.44439000	26.83932000
24.89999870	0.00000000	67.00910000	25.26452000
25.09999869	0.00000000	89.39468000	23.72662000
25.29999867	0.00000000	108.60600000	22.61319000
25.49999866	0.00000000	118.94070000	22.61319000
25.69999865	0.00000000	117.45200000	23.81890000
25.89999864	0.00000000	104.70590000	26.14419000
26.09999863	0.00000000	83.80905000	29.66904000
26.29999862	0.00000000	59.05511000	33.48917000
26.49999860	0.00000000	35.93135000	36.96481000
26.69999859	0.00000000	20.10950000	38.82874000
26.89999858	0.00000000	15.45891000	38.41043000
27.09999857	0.00000000	22.76698000	35.25467000
27.29999856	0.00000000	40.16363000	29.44759000
27.49999854	0.00000000	63.71186000	22.10261000
27.69999853	0.00000000	88.04133000	14.76378000
27.89999852	0.00000000	107.40030000	9.04896600
28.09999851	0.00000000	117.82730000	6.77288300
28.29999850	0.00000000	117.07680000	9.13508800
28.49999848	0.00000000	105.16730000	15.73573000
28.69999847	0.00000000	85.90058000	25.81816000
28.89999846	0.00000000	63.84719000	37.38312000
29.09999845	0.00000000	43.75000000	47.84079000
29.29999844	0.00000000	30.16117000	55.05044000
29.49999843	0.00000000	25.46137000	56.52682000
29.69999841	0.00000000	30.06890000	50.77510000
29.89999840	0.00000000	42.77190000	39.99138000
30.09999839	0.00000000	60.13164000	26.32874000
30.29999838	0.00000000	77.94660000	11.65108000
30.49999837	0.00000000	92.65501000	-1.03346500
30.69999835	0.00000000	101.21190000	-8.28001900
30.89999834	0.00000000	102.09770000	-7.86171200
31.09999833	0.00000000	96.37057000	0.63976370
31.29999832	0.00000000	85.85753000	15.27436000
31.49999831	0.00000000	72.31791000	32.64640000
31.69999829	0.00000000	58.45226000	48.91117000
31.89999828	0.00000000	47.98228000	60.90059000
32.09999827	0.00000000	42.82111000	66.28937000
32.29999826	0.00000000	42.82111000	63.55191000
32.49999825	0.00000000	47.84694000	53.13730000
32.69999824	0.00000000	57.09892000	37.29700000
32.89999822	0.00000000	67.90108000	19.54355000
33.09999821	0.00000000	77.99581000	3.66018700
33.29999820	0.00000000	85.30388000	-7.16658400
33.49999819	0.00000000	88.04133000	-11.02362000
33.69999818	0.00000000	85.80831000	-6.79749000
33.89999816	0.00000000	80.04429000	4.35531500
34.09999815	0.00000000	72.31791000	19.50049000
34.29999814	0.00000000	64.22243000	36.13435000
34.49999813	0.00000000	58.02780000	51.09497000
34.69999812	0.00000000	54.91510000	59.97170000
34.89999810	0.00000000	55.24114000	60.85137000
35.09999809	0.00000000	58.72908000	54.71825000
35.29999808	0.00000000	64.08710000	43.10408000
35.49999807	0.00000000	70.26943000	28.46333000
35.69999806	0.00000000	75.25220000	14.20399000
35.89999805	0.00000000	77.99581000	3.74630900
36.09999803	0.00000000	77.95275000	-0.89812980
36.29999802	0.00000000	74.92618000	1.05807100
36.49999801	0.00000000	69.94955000	9.46727400
36.69999800	0.00000000	64.96062000	21.72736000
36.89999799	0.00000000	61.05437000	34.04897000
37.09999797	0.00000000	59.19045000	43.71309000
37.29999796	0.00000000	59.94094000	48.35752000
37.49999795	0.00000000	63.37967000	47.24409000
37.69999794	0.00000000	67.94415000	41.06176000
37.89999793	0.00000000	72.26870000	31.11466000
38.09999791	0.00000000	75.71973000	20.42938000
38.29999790	0.00000000	77.66363000	12.75836000
38.49999789	0.00000000	77.25147000	10.06398000
38.69999788	0.00000000	74.96924000	13.08440000
38.89999787	0.00000000	71.06299000	20.70620000
39.09999786	0.00000000	66.45546000	29.90895000
39.29999784	0.00000000	62.21702000	38.36737000
39.49999783	0.00000000	59.47342000	43.71309000
39.69999782	0.00000000	58.67987000	44.08833000
39.89999781	0.00000000	59.43036000	39.48080000
40.09999780	0.00000000	61.79872000	31.02239000
40.29999778	0.00000000	65.29281000	21.08145000
40.49999777	0.00000000	69.61736000	12.70915000
40.69999776	0.00000000	74.13878000	8.85826700
40.89999775	0.00000000	77.28838000	10.71604000
41.09999774	0.00000000	78.09424000	16.80610000
41.29999772	0.00000000	77.75590000	25.35064000
41.49999771	0.00000000	75.71973000	34.60261000
41.69999770	0.00000000	72.26870000	42.63656000
41.89999769	0.00000000	67.99335000	46.81963000
42.09999768	0.00000000	63.75492000	45.70620000
42.29999767	0.00000000	60.67913000	39.99138000
42.49999765	0.00000000	59.47342000	31.53297000
42.69999764	0.00000000	60.21776000	22.69931000
42.89999763	0.00000000	62.13090000	15.73573000
43.09999762	0.00000000	64.87450000	12.24778000
43.29999761	0.00000000	67.94415000	12.57382000
43.49999759	0.00000000	70.64468000	16.38164000
43.69999758	0.00000000	72.22563000	22.14567000
43.89999757	0.00000000	72.64394000	28.32800000
44.09999756	0.00000000	72.31791000	33.76599000
44.29999755	0.00000000	71.53051000	37.16166000
44.49999753	0.00000000	70.78001000	37.61687000
44.69999752	0.00000000	69.99261000	35.02091000
44.89999751	0.00000000	69.61736000	31.57603000
45.09999750	0.00000000	69.57431000	28.00197000
45.29999749	0.00000000	69.48203000	24.19414000
45.49999748	0.00000000	68.68848000	21.49975000
45.69999746	0.00000000	66.73843000	20.70620000
45.89999745	0.00000000	64.40699000	21.40748000
46.09999744	0.00000000	61.66338000	23.35753000
46.29999743	0.00000000	59.05511000	25.63976000
46.49999742	0.00000000	57.94168000	28.00197000
46.69999740	0.00000000	59.14739000	29.90895000
46.89999739	0.00000000	62.68454000	31.11466000
47.09999738	0.00000000	68.45472000	31.48376000
47.29999737	0.00000000	74.96924000	31.06545000
47.49999736	0.00000000	79.99508000	29.49065000
47.69999734	0.00000000	82.69561000	26.79626000
47.89999733	0.00000000	82.27116000	23.77584000
48.09999732	0.00000000	78.37106000	21.49975000
48.29999731	0.00000000	71.75812000	21.08145000
48.49999730	0.00000000	63.29355000	22.15182000
48.69999729	0.00000000	55.24114000	23.77584000
48.89999727	0.00000000	50.21530000	26.14419000
49.09999726	0.00000000	49.05265000	29.58292000
49.29999725	0.00000000	52.21457000	32.60334000
49.49999724	0.00000000	59.52263000	34.18430000
49.69999723	0.00000000	69.15600000	34.18430000
49.89999721	0.00000000	78.37106000	32.60334000
50.09999720	0.00000000	84.97169000	29.53371000
50.29999719	0.00000000	87.25393000	25.68282000
50.49999718	0.00000000	84.92863000	22.19488000
50.69999717	0.00000000	77.99581000	19.50049000
50.89999715	0.00000000	68.45472000	18.38706000
51.09999714	0.00000000	59.56569000	19.54355000
51.29999713	0.00000000	53.33415000	22.61319000
51.49999712	0.00000000	50.67667000	26.83932000
51.69999711	0.00000000	52.63287000	31.11466000
51.89999710	0.00000000	59.10433000	34.55955000
52.09999708	0.00000000	67.52583000	36.50344000
52.29999707	0.00000000	75.25220000	36.09129000
52.49999706	0.00000000	80.69020000	33.80905000
52.69999705	0.00000000	82.56028000	29.95817000
52.89999704	0.00000000	80.27190000	25.72589000
53.09999702	0.00000000	74.13878000	22.23794000
53.29999701	0.00000000	66.49852000	19.91880000
53.49999700	0.00000000	59.56569000	19.54355000
53.69999699	0.00000000	55.33341000	21.03838000
53.89999698	0.00000000	54.91510000	23.72662000
54.09999696	0.00000000	57.98474000	26.79626000
54.29999695	0.00000000	63.71186000	29.49065000
54.49999694	0.00000000	70.26943000	31.02239000
54.69999693	0.00000000	75.67052000	31.06545000
54.89999692	0.00000000	79.10925000	29.90895000
55.09999691	0.00000000	79.06618000	28.04503000
55.29999689	0.00000000	75.30142000	26.14419000
55.49999688	0.00000000	69.57431000	25.39985000
55.69999687	0.00000000	63.79798000	25.72589000
55.89999686	0.00000000	59.52263000	26.88853000
56.09999685	0.00000000	57.56643000	28.42027000
56.29999683	0.00000000	57.98474000	29.90895000
56.49999682	0.00000000	61.05437000	30.64714000
56.69999681	0.00000000	66.03100000	29.86589000
56.89999680	0.00000000	71.01993000	27.95891000
57.09999679	0.00000000	74.87697000	25.21530000
57.29999677	0.00000000	76.41486000	22.19488000
57.49999676	0.00000000	75.34448000	19.91880000
57.69999675	0.00000000	72.69316000	19.59276000
57.89999674	0.00000000	69.57431000	21.49975000
58.09999673	0.00000000	66.45546000	25.35679000
58.29999672	0.00000000	63.75492000	30.00123000
58.49999670	0.00000000	62.21702000	34.60261000
58.69999669	0.00000000	62.21702000	37.99213000
58.89999668	0.00000000	63.71186000	38.36737000
59.09999667	0.00000000	65.98794000	35.67298000
59.29999666	0.00000000	67.94415000	30.64714000
59.49999664	0.00000000	69.53124000	24.14493000
59.69999663	0.00000000	70.64468000	18.38706000
59.89999662	0.00000000	70.64468000	14.84990000
60.09999661	0.00000000	69.53124000	13.73647000
60.29999660	0.00000000	68.03641000	15.73573000
60.49999658	0.00000000	66.87376000	21.12451000
60.69999657	0.00000000	66.44931000	28.42027000
60.89999656	0.00000000	66.44931000	35.71604000
61.09999655	0.00000000	66.82455000	41.06176000
61.29999654	0.00000000	67.57505000	42.59350000
61.49999653	0.00000000	67.95029000	39.94832000
61.69999651	0.00000000	67.99335000	34.18430000
61.89999650	0.00000000	67.95029000	26.83932000
62.09999649	0.00000000	67.57505000	19.50049000
62.29999648	0.00000000	66.78149000	13.69340000
62.49999647	0.00000000	66.03100000	10.67298000
62.69999645	0.00000000	65.29281000	11.46038000
62.89999644	0.00000000	65.29281000	16.43085000
63.09999643	0.00000000	66.03100000	23.68356000
63.29999642	0.00000000	66.82455000	31.06545000
63.49999641	0.00000000	67.99335000	37.24778000
63.69999639	0.00000000	69.10678000	41.10482000
63.89999638	0.00000000	69.53124000	41.52312000
64.09999637	0.00000000	69.53124000	38.82874000
64.29999636	0.00000000	69.10678000	33.80905000
64.49999635	0.00000000	67.94415000	27.25763000
64.69999634	0.00000000	66.45546000	21.08145000
64.89999632	0.00000000	65.29281000	16.43085000
65.09999631	0.00000000	64.86835000	14.11171000
65.29999630	0.00000000	64.86835000	14.80684000
65.49999629	0.00000000	65.29281000	17.50123000
65.69999628	0.00000000	66.45546000	21.40748000
65.89999626	0.00000000	67.94415000	26.42101000
66.09999625	0.00000000	69.06373000	31.02239000
66.29999624	0.00000000	69.06373000	34.18430000
66.49999623	0.00000000	67.94415000	35.75910000
66.69999622	0.00000000	66.45546000	35.80217000
66.89999620	0.00000000	65.24360000	34.64567000
67.09999619	0.00000000	64.49311000	32.69562000
67.29999618	0.00000000	64.17323000	29.95201000
67.49999617	0.00000000	65.33588000	26.83932000
67.69999616	0.00000000	67.57505000	23.72662000
67.89999615	0.00000000	69.57431000	20.98917000
68.09999613	0.00000000	71.48744000	19.08218000
68.29999612	0.00000000	72.96998000	18.29478000
68.49999611	0.00000000	72.55782000	19.08218000
68.69999610	0.00000000	70.64468000	20.98917000
68.89999609	0.00000000	67.52583000	23.77584000
69.09999607	0.00000000	63.66264000	27.30684000
69.29999606	0.00000000	60.21776000	31.57603000
69.49999605	0.00000000	57.94168000	35.75910000
69.69999604	0.00000000	57.94168000	38.41043000
69.89999603	0.00000000	60.26082000	38.45349000
70.09999601	0.00000000	64.13016000	36.13435000
70.29999600	0.00000000	69.19906000	32.22810000
70.49999599	0.00000000	74.18184000	26.83932000
70.69999598	0.00000000	78.03887000	21.49975000
70.89999597	0.00000000	79.53371000	17.96260000
71.09999596	0.00000000	77.99581000	16.38164000
71.29999594	0.00000000	73.76353000	16.80610000
71.49999593	0.00000000	67.99335000	19.50049000
71.69999592	0.00000000	62.17396000	23.72662000
71.89999591	0.00000000	57.51722000	28.32800000
72.09999590	0.00000000	54.82283000	32.22810000
72.29999588	0.00000000	54.82283000	34.55955000
72.49999587	0.00000000	57.51722000	35.34079000
72.69999586	0.00000000	62.21702000	34.18430000
72.89999585	0.00000000	68.31938000	31.48991000
73.09999584	0.00000000	74.08341000	28.08809000
73.29999582	0.00000000	77.25147000	24.98770000
73.49999581	0.00000000	78.46333000	23.40059000
73.69999580	0.00000000	77.57751000	22.57013000
73.89999579	0.00000000	73.76353000	22.65625000
74.09999578	0.00000000	68.45472000	24.10187000
74.29999577	0.00000000	63.75492000	26.00270000
74.49999575	0.00000000	60.26082000	27.12229000
74.69999574	0.00000000	58.31693000	27.53445000
74.89999573	0.00000000	58.67987000	26.75320000
75.09999572	0.00000000	60.59301000	25.30758000
75.29999571	0.00000000	63.71186000	24.19414000
75.49999569	0.00000000	67.52583000	24.23720000
75.69999568	0.00000000	70.60162000	25.72589000
75.89999567	0.00000000	72.18258000	28.04503000
76.09999566	0.00000000	72.22563000	30.37647000
76.29999565	0.00000000	71.11221000	32.64640000
76.49999563	0.00000000	69.57431000	33.76599000
76.69999562	0.00000000	68.03641000	32.97859000
76.89999561	0.00000000	66.87376000	30.64714000
77.09999560	0.00000000	66.44931000	26.79626000
77.29999559	0.00000000	66.40624000	22.57013000
77.49999558	0.00000000	66.40624000	19.08218000
77.69999556	0.00000000	66.40624000	16.80610000
77.89999555	0.00000000	66.36318000	16.84916000
78.09999554	0.00000000	65.98794000	19.50049000
78.29999553	0.00000000	65.24360000	23.77584000
78.49999552	0.00000000	64.86835000	28.79552000
78.69999550	0.00000000	64.86835000	33.80905000
78.89999549	0.00000000	65.29281000	37.25394000
79.09999548	0.00000000	66.45546000	38.41043000
79.29999547	0.00000000	67.99335000	36.87869000
79.49999546	0.00000000	69.57431000	33.06471000
79.69999544	0.00000000	71.11221000	28.42027000
79.89999543	0.00000000	72.18258000	23.72662000
80.09999542	0.00000000	71.76427000	19.50049000
80.29999541	0.00000000	69.52509000	16.80610000
80.49999540	0.00000000	66.82455000	16.38164000
80.69999539	0.00000000	64.45004000	17.91953000
80.89999537	0.00000000	62.17396000	20.98917000
81.09999536	0.00000000	61.05437000	24.84621000
81.29999535	0.00000000	61.75566000	28.32800000
81.49999534	0.00000000	63.33661000	31.06545000
81.69999533	0.00000000	65.71111000	32.64640000
81.89999531	0.00000000	69.06373000	33.06471000
82.09999530	0.00000000	71.38902000	32.68946000
82.29999529	0.00000000	71.86269000	31.48991000
82.49999528	0.00000000	71.85040000	29.53371000
82.69999527	0.00000000	70.64468000	26.83932000
82.89999525	0.00000000	68.41166000	24.14493000
83.09999524	0.00000000	66.40624000	22.15182000
83.29999523	0.00000000	64.49311000	20.57087000
83.49999522	0.00000000	63.01058000	19.45743000
83.69999521	0.00000000	63.33661000	19.50049000
83.89999520	0.00000000	64.40699000	21.03838000
84.09999518	0.00000000	65.24360000	23.77584000
84.29999517	0.00000000	66.40624000	27.25763000
84.49999516	0.00000000	67.52583000	31.11466000
84.69999515	0.00000000	67.95029000	34.18430000
84.89999514	0.00000000	67.99335000	35.71604000
85.09999512	0.00000000	67.99335000	35.34079000
85.29999511	0.00000000	67.99335000	33.02165000
85.49999510	0.00000000	67.99335000	29.53371000
85.69999509	0.00000000	68.03641000	25.26452000
85.89999508	0.00000000	68.36859000	21.08145000
86.09999506	0.00000000	68.68848000	18.33784000
86.29999505	0.00000000	67.94415000	17.54429000
86.49999504	0.00000000	66.82455000	18.33784000
86.69999503	0.00000000	65.98794000	21.08145000
86.89999502	0.00000000	64.86835000	25.30758000
87.09999501	0.00000000	64.13016000	29.95817000
87.29999499	0.00000000	64.45004000	34.18430000
87.49999498	0.00000000	64.82529000	36.82948000
87.69999497	0.00000000	65.29281000	36.82948000
87.89999496	0.00000000	66.45546000	34.14124000
88.09999495	0.00000000	67.94415000	29.58292000
88.29999493	0.00000000	69.10678000	24.56939000
88.49999492	0.00000000	69.48203000	20.66314000
88.69999491	0.00000000	69.10678000	17.96260000
88.89999490	0.00000000	67.94415000	17.22441000
89.09999489	0.00000000	66.45546000	19.21752000
89.29999487	0.00000000	65.29281000	23.40674000
89.49999486	0.00000000	64.86835000	29.16461000
89.69999485	0.00000000	64.82529000	34.09203000
89.89999484	0.00000000	64.86835000	36.78642000
90.09999483	0.00000000	65.24360000	36.41117000
90.29999482	0.00000000	66.03100000	33.02165000
90.49999480	0.00000000	66.78149000	28.42027000
90.69999479	0.00000000	67.57505000	23.72662000
90.89999478	0.00000000	67.95029000	19.50049000
91.09999477	0.00000000	67.99335000	16.84916000
91.29999476	0.00000000	67.95029000	16.84916000
91.49999474	0.00000000	67.57505000	19.54355000
91.69999473	0.00000000	66.87376000	24.15108000
91.89999472	0.00000000	66.87376000	29.49065000
92.09999471	0.00000000	67.57505000	33.71678000
92.29999470	0.00000000	67.90108000	35.67298000
92.49999468	0.00000000	67.57505000	35.29773000
92.69999467	0.00000000	66.78149000	32.56028000
92.89999466	0.00000000	66.03100000	28.00197000
93.09999465	0.00000000	65.20053000	22.98843000
93.29999464	0.00000000	64.45004000	19.16830000
93.49999463	0.00000000	63.66264000	17.22441000
93.69999461	0.00000000	63.33661000	18.01181000
93.89999460	0.00000000	63.75492000	21.03838000
94.09999459	0.00000000	65.29281000	25.26452000
94.29999458	0.00000000	67.57505000	29.49065000
94.49999457	0.00000000	69.53124000	32.56028000
94.69999455	0.00000000	71.06299000	33.71678000
94.89999454	0.00000000	71.80733000	32.60334000
95.09999453	0.00000000	71.01993000	29.90895000
95.29999452	0.00000000	69.10678000	26.42101000
95.49999451	0.00000000	66.36318000	22.61319000
95.69999449	0.00000000	63.28740000	19.96186000
95.89999448	0.00000000	60.59301000	19.54355000
96.09999447	0.00000000	59.05511000	21.03838000
96.29999446	0.00000000	59.05511000	23.72662000
96.49999445	0.00000000	60.63607000	26.79626000
96.69999444	0.00000000	63.71186000	29.53371000
96.89999442	0.00000000	67.57505000	31.44069000
97.09999441	0.00000000	71.06299000	32.18504000
97.29999440	0.00000000	73.76353000	31.02239000
97.49999439	0.00000000	74.92618000	28.42027000
97.69999438	0.00000000	74.13878000	25.77510000
97.89999436	0.00000000	71.85040000	24.19414000
98.09999435	0.00000000	68.31938000	23.72662000
98.29999434	0.00000000	64.49925000	23.72662000
98.49999433	0.00000000	60.96825000	24.15108000
98.69999432	0.00000000	58.72908000	25.26452000
98.89999430	0.00000000	58.26771000	26.42101000
99.09999429	0.00000000	59.84251000	27.21457000
99.29999428	0.00000000	62.50000000	28.00197000
99.49999427	0.00000000	66.03100000	28.32800000
99.69999426	0.00000000	69.48203000	28.04503000
99.89999425	0.00000000	72.22563000	27.67593000
100.09999423	0.00000000	73.76353000	28.08809000
100.29999422	0.00000000	73.80659000	28.79552000
100.49999421	0.00000000	72.60088000	29.53371000
100.69999420	0.00000000	70.26943000	29.49065000
100.89999419	0.00000000	66.82455000	28.37721000
101.09999417	0.00000000	63.75492000	26.83932000
101.29999416	0.00000000	61.75566000	25.26452000
101.49999415	0.00000000	60.54995000	23.72662000
101.69999414	0.00000000	60.17470000	22.57013000
101.89999413	0.00000000	60.59301000	22.23794000
102.09999411	0.00000000	62.17396000	23.03149000
102.29999410	0.00000000	64.82529000	25.35064000
102.49999409	0.00000000	67.52583000	28.37721000
102.69999408	0.00000000	69.48203000	31.06545000
102.89999407	0.00000000	70.64468000	32.64640000
103.09999406	0.00000000	70.68774000	33.02165000
103.29999404	0.00000000	69.90649000	32.22810000
103.49999403	0.00000000	68.73154000	29.86589000
103.69999402	0.00000000	66.78149000	26.46407000
103.89999401	0.00000000	64.86835000	22.93922000
104.09999400	0.00000000	63.28740000	20.28789000
104.29999398	0.00000000	62.17396000	18.80536000
104.49999397	0.00000000	62.17396000	19.96186000
104.69999396	0.00000000	63.28740000	23.26525000
104.89999395	0.00000000	64.82529000	26.37795000
105.09999394	0.00000000	66.36318000	28.74631000
105.29999392	0.00000000	67.57505000	30.69636000
105.49999391	0.00000000	68.36859000	31.44069000
105.69999390	0.00000000	69.10678000	31.06545000
105.89999389	0.00000000	69.06373000	29.53371000
106.09999388	0.00000000	67.94415000	27.21457000
106.29999387	0.00000000	66.45546000	24.93233000
106.49999385	0.00000000	65.29281000	22.98843000
106.69999384	0.00000000	64.86835000	22.23794000
106.89999383	0.00000000	64.82529000	22.61319000
107.09999382	0.00000000	64.91756000	24.10187000
107.29999381	0.00000000	65.66806000	26.00270000
107.49999379	0.00000000	67.15059000	27.21457000
107.69999378	0.00000000	67.90108000	28.37721000
107.89999377	0.00000000	67.95029000	29.07234000
108.09999376	0.00000000	67.52583000	28.32800000
108.29999375	0.00000000	66.40624000	26.83932000
108.49999374	0.00000000	65.24360000	25.30758000
108.69999372	0.00000000	64.45004000	24.15108000
108.89999371	0.00000000	63.66264000	23.72662000
109.09999370	0.00000000	63.33661000	23.72662000
109.29999369	0.00000000	63.71186000	24.15108000
109.49999368	0.00000000	64.86835000	25.30758000
109.69999366	0.00000000	66.36318000	26.83932000
109.89999365	0.00000000	67.52583000	28.37721000
110.09999364	0.00000000	67.95029000	29.49065000
110.29999363	0.00000000	67.95029000	29.53371000
110.49999362	0.00000000	67.57505000	28.75246000
110.69999360	0.00000000	66.78149000	27.62672000
110.89999359	0.00000000	66.03100000	26.05807000
111.09999358	0.00000000	65.20053000	24.88927000
111.29999357	0.00000000	64.45004000	23.72662000
111.49999356	0.00000000	63.71186000	22.98843000
111.69999355	0.00000000	63.75492000	23.35138000
111.89999353	0.00000000	64.82529000	24.10187000
112.09999352	0.00000000	65.93873000	25.26452000
112.29999351	0.00000000	66.36318000	26.42101000
112.49999350	0.00000000	66.40624000	27.21457000
112.69999349	0.00000000	66.40624000	28.00197000
112.89999347	0.00000000	66.40624000	28.37721000
113.09999346	0.00000000	66.40624000	28.37721000
113.29999345	0.00000000	66.40624000	28.00197000
113.49999344	0.00000000	66.36318000	27.21457000
113.69999343	0.00000000	66.07406000	26.51329000
113.89999341	0.00000000	65.99409000	26.05807000
114.09999340	0.00000000	66.35703000	26.04577000
114.29999339	0.00000000	65.61884000	25.63976000
114.49999338	0.00000000	65.29281000	25.26452000
114.69999337	0.00000000	65.61269000	24.88927000
114.89999336	0.00000000	65.61884000	24.52018000
115.09999334	0.00000000	66.03100000	24.88927000
115.29999333	0.00000000	66.36318000	25.22145000
115.49999332	0.00000000	66.40624000	25.30758000
115.69999331	0.00000000	66.40624000	25.68282000
115.89999330	0.00000000	66.40624000	26.46407000
116.09999328	0.00000000	66.40624000	27.21457000
116.29999327	0.00000000	66.36318000	28.00197000
116.49999326	0.00000000	65.98794000	28.37721000
116.69999325	0.00000000	65.24360000	28.37721000
116.89999324	0.00000000	64.91756000	28.00197000
117.09999322	0.00000000	65.24360000	27.21457000
117.29999321	0.00000000	65.98794000	26.42101000
117.49999320	0.00000000	66.40624000	25.26452000
117.69999319	0.00000000	66.82455000	24.15108000
117.89999318	0.00000000	67.57505000	23.77584000
118.09999317	0.00000000	67.95029000	24.10187000
118.29999315	0.00000000	67.95029000	24.88927000
118.49999314	0.00000000	67.52583000	25.63976000
118.69999313	0.00000000	66.40624000	26.46407000
118.89999312	0.00000000	65.24360000	27.17150000
119.09999311	0.00000000	64.45004000	27.62672000
119.29999309	0.00000000	63.66264000	27.63287000
119.49999308	0.00000000	63.28740000	28.04503000
119.69999307	0.00000000	63.33661000	28.32800000
119.89999306	0.00000000	64.08095000	28.00197000
120.09999305	0.00000000	65.61269000	27.21457000
120.29999303	0.00000000	66.78149000	26.46407000
120.49999302	0.00000000	67.94415000	25.68282000
120.69999301	0.00000000	68.68848000	25.30758000
120.89999300	0.00000000	68.36859000	25.26452000
121.09999299	0.00000000	67.99335000	25.26452000
121.29999298	0.00000000	67.52583000	25.26452000
121.49999296	0.00000000	66.36318000	25.30758000
121.69999295	0.00000000	64.86835000	25.68282000
121.89999294	0.00000000	63.66264000	26.37795000
122.09999293	0.00000000	62.91216000	26.42101000
122.29999292	0.00000000	62.50000000	26.10113000
122.49999290	0.00000000	62.91216000	26.46407000
122.69999289	0.00000000	63.66264000	26.79626000
122.89999288	0.00000000	64.86835000	26.83932000
123.09999287	0.00000000	66.36318000	26.83932000
123.29999286	0.00000000	67.52583000	26.83932000
123.49999284	0.00000000	67.95029000	26.79626000
123.69999283	0.00000000	67.95029000	26.42101000
123.89999282	0.00000000	67.57505000	25.68282000
124.09999281	0.00000000	66.78149000	25.30758000
124.29999280	0.00000000	66.03100000	25.26452000
124.49999279	0.00000000	65.20053000	25.26452000
124.69999277	0.00000000	64.45004000	25.26452000
124.89999276	0.00000000	63.66264000	25.30758000
125.09999275	0.00000000	63.28740000	25.68282000
125.29999274	0.00000000	63.28740000	26.42101000
125.49999273	0.00000000	63.66264000	26.79626000
125.69999271	0.00000000	64.45004000	26.83932000
125.89999270	0.00000000	65.24360000	26.83932000
126.09999269	0.00000000	66.40624000	26.83932000
126.29999268	0.00000000	67.52583000	26.83932000
126.49999267	0.00000000	67.95029000	26.83932000
126.69999265	0.00000000	67.95029000	26.79626000
126.89999264	0.00000000	67.52583000	26.42101000
127.09999263	0.00000000	66.40624000	25.68282000
127.29999262	0.00000000	65.24360000	25.30758000
127.49999261	0.00000000	64.45004000	25.26452000
127.69999260	0.00000000	63.66264000	25.30758000
127.89999258	0.00000000	63.28740000	25.68282000
128.09999257	0.00000000	63.28740000	26.42101000
128.29999256	0.00000000	63.71186000	26.79626000
128.49999255	0.00000000	64.86835000	26.88238000
128.69999254	0.00000000	66.36318000	27.21457000
128.89999252	0.00000000	67.52583000	27.58366000
129.09999251	0.00000000	67.95029000	27.17150000
129.29999250	0.00000000	67.95029000	26.46407000
129.49999249	0.00000000	67.52583000	25.68282000
129.69999248	0.00000000	66.36318000	25.30758000
129.89999246	0.00000000	64.86835000	25.26452000
130.09999245	0.00000000	63.71186000	25.30758000
130.29999244	0.00000000	63.33661000	25.63976000
130.49999243	0.00000000	63.66264000	26.04577000
130.69999242	0.00000000	64.40699000	26.05807000
130.89999241	0.00000000	64.82529000	26.46407000
131.09999239	0.00000000	65.29281000	26.79626000
131.29999238	0.00000000	66.40624000	26.79626000
131.49999237	0.00000000	67.48277000	26.42101000
131.69999236	0.00000000	67.52583000	25.68282000
131.89999235	0.00000000	66.78149000	25.30758000
132.09999233	0.00000000	66.03100000	25.22145000
132.29999232	0.00000000	65.24360000	24.88927000
132.49999231	0.00000000	64.86835000	24.52018000
132.69999230	0.00000000	64.82529000	24.93233000
132.89999229	0.00000000	64.82529000	25.63976000
133.09999227	0.00000000	64.82529000	26.46407000
133.29999226	0.00000000	64.82529000	27.17150000
133.49999225	0.00000000	64.82529000	27.58366000
133.69999224	0.00000000	64.82529000	27.25763000
133.89999223	0.00000000	64.82529000	27.25763000
134.09999222	0.00000000	64.82529000	27.53445000
134.29999220	0.00000000	64.82529000	26.79626000
134.49999219	0.00000000	64.86835000	25.68282000
134.69999218	0.00000000	65.24360000	24.88927000
134.89999217	0.00000000	65.98794000	24.10187000
135.09999216	0.00000000	66.36318000	23.77584000
135.29999214	0.00000000	66.40624000	24.10187000
135.49999213	0.00000000	66.36318000	24.88927000
135.69999212	0.00000000	65.98794000	25.63976000
135.89999211	0.00000000	65.24360000	26.42101000
136.09999210	0.00000000	64.82529000	26.79626000
136.29999208	0.00000000	64.40699000	26.83932000
136.49999207	0.00000000	63.66264000	26.83932000
136.69999206	0.00000000	63.33661000	26.83932000
136.89999205	0.00000000	63.71186000	26.79626000
137.09999204	0.00000000	64.78223000	26.42101000
137.29999203	0.00000000	65.56963000	25.68282000
137.49999201	0.00000000	65.61884000	25.30758000
137.69999200	0.00000000	66.03100000	25.22145000
137.89999199	0.00000000	66.31397000	24.84621000
138.09999198	0.00000000	65.98794000	24.15108000
138.29999197	0.00000000	65.24360000	24.15108000
138.49999195	0.00000000	64.86835000	24.84621000
138.69999194	0.00000000	64.78223000	25.22145000
138.89999193	0.00000000	64.40699000	25.30758000
139.09999192	0.00000000	63.71186000	25.68282000
139.29999191	0.00000000	63.71186000	26.46407000
139.49999189	0.00000000	64.40699000	27.17150000
139.69999188	0.00000000	64.82529000	27.58366000
139.89999187	0.00000000	65.24360000	27.17150000
140.09999186	0.00000000	65.98794000	26.46407000
140.29999185	0.00000000	66.36318000	25.68282000
140.49999184	0.00000000	66.40624000	25.26452000
140.69999182	0.00000000	66.36318000	24.84621000
140.89999181	0.00000000	65.98794000	24.10187000
141.09999180	0.00000000	65.24360000	23.77584000
141.29999179	0.00000000	64.86835000	24.10187000
141.49999178	0.00000000	64.82529000	24.88927000
141.69999176	0.00000000	64.82529000	25.63976000
141.89999175	0.00000000	64.86835000	26.42101000
142.09999174	0.00000000	65.20053000	26.79626000
142.29999173	0.00000000	65.61269000	26.83932000
142.49999172	0.00000000	65.61884000	26.83932000
142.69999170	0.00000000	65.98794000	26.79626000
142.89999169	0.00000000	65.93873000	26.42101000
143.09999168	0.00000000	65.24360000	25.63976000
143.29999167	0.00000000	64.86835000	24.88927000
143.49999166	0.00000000	64.82529000	24.15108000
143.69999165	0.00000000	64.82529000	24.10187000
143.89999163	0.00000000	64.82529000	24.47096000
144.09999162	0.00000000	64.82529000	24.47712000
144.29999161	0.00000000	64.86835000	24.93233000
144.49999160	0.00000000	65.24360000	25.63976000
144.69999159	0.00000000	65.98794000	26.42101000
144.89999157	0.00000000	66.31397000	26.79626000
145.09999156	0.00000000	65.98794000	26.83932000
145.29999155	0.00000000	65.24360000	26.83932000
145.49999154	0.00000000	64.86835000	26.79626000
145.69999153	0.00000000	64.82529000	26.42101000
145.89999151	0.00000000	64.82529000	25.68282000
146.09999150	0.00000000	64.82529000	25.30758000
146.29999149	0.00000000	64.86835000	25.26452000
146.49999148	0.00000000	65.20053000	25.26452000
146.69999147	0.00000000	65.61269000	25.26452000
146.89999146	0.00000000	65.61884000	25.30758000
147.09999144	0.00000000	66.03100000	25.68282000
147.29999143	0.00000000	66.31397000	26.42101000
147.49999142	0.00000000	65.98794000	26.79626000
147.69999141	0.00000000	65.24360000	26.83932000
147.89999140	0.00000000	64.86835000	26.83932000
148.09999138	0.00000000	64.82529000	26.83932000
148.29999137	0.00000000	64.82529000	26.79626000
148.49999136	0.00000000	64.82529000	26.42101000
148.69999135	0.00000000	64.82529000	25.68282000
148.89999134	0.00000000	64.82529000	25.30758000
149.09999132	0.00000000	64.82529000	25.26452000
149.29999131	0.00000000	64.86835000	25.30758000
149.49999130	0.00000000	65.20053000	25.63976000
149.69999129	0.00000000	65.56963000	26.00270000
149.89999128	0.00000000	65.24360000	25.68282000
150.09999127	0.00000000	65.24360000	25.72589000
150.29999125	0.00000000	65.56963000	26.42101000
150.49999124	0.00000000	65.20053000	26.79626000
150.69999123	0.00000000	64.86835000	26.83932000
150.89999122	0.00000000	64.82529000	26.83932000
151.09999121	0.00000000	64.82529000	26.83932000
151.29999119	0.00000000	64.82529000	26.79626000
151.49999118	0.00000000	64.82529000	26.42101000
151.69999117	0.00000000	64.82529000	25.68282000
151.89999116	0.00000000	64.82529000	25.30758000
152.09999115	0.00000000	64.82529000	25.26452000
152.29999113	0.00000000	64.86835000	25.26452000
152.49999112	0.00000000	65.20053000	25.26452000
152.69999111	0.00000000	65.61269000	25.26452000
152.89999110	0.00000000	65.57578000	25.26452000
153.09999109	0.00000000	65.61269000	25.30758000
153.29999108	0.00000000	65.20053000	25.68282000
153.49999106	0.00000000	64.86835000	26.42101000
153.69999105	0.00000000	64.78223000	26.74705000
153.89999104	0.00000000	64.40699000	26.42101000
154.09999103	0.00000000	63.66264000	25.68282000
154.29999102	0.00000000	63.28740000	25.35679000
154.49999100	0.00000000	63.28740000	25.63976000
154.69999099	0.00000000	63.66264000	26.00270000
154.89999098	0.00000000	64.40699000	25.63976000
155.09999097	0.00000000	64.78223000	25.30758000
155.29999096	0.00000000	64.82529000	25.26452000
155.49999094	0.00000000	64.86835000	25.26452000
155.69999093	0.00000000	65.20053000	25.26452000
155.89999092	0.00000000	65.56963000	25.26452000
156.09999091	0.00000000	65.20053000	25.26452000
156.29999090	0.00000000	64.86835000	25.30758000
156.49999089	0.00000000	64.82529000	25.68282000
156.69999087	0.00000000	64.78223000	26.42101000
156.89999086	0.00000000	64.40699000	26.79626000
157.09999085	0.00000000	63.66264000	26.79626000
157.29999084	0.00000000	63.28740000	26.42101000
157.49999083	0.00000000	63.28740000	25.68282000
157.69999081	0.00000000	63.66264000	25.30758000
157.89999080	0.00000000	64.40699000	25.26452000
158.09999079	0.00000000	64.78223000	25.22145000
158.29999078	0.00000000	64.82529000	24.88927000
158.49999077	0.00000000	64.86835000	24.52018000
158.69999075	0.00000000	65.20053000	24.88927000
158.89999074	0.00000000	65.56963000	25.26452000
159.09999073	0.00000000	65.20053000	25.68282000
159.29999072	0.00000000	64.82529000	26.42101000
159.49999071	0.00000000	64.45004000	26.79626000
159.69999070	0.00000000	64.08095000	26.83932000
159.89999068	0.00000000	64.45004000	26.83932000
160.09999067	0.00000000	64.78223000	26.79626000
160.29999066	0.00000000	64.82529000	26.42101000
160.49999065	0.00000000	64.82529000	25.68282000
160.69999064	0.00000000	64.82529000	25.30758000
160.89999062	0.00000000	64.82529000	25.26452000
161.09999061	0.00000000	64.82529000	25.26452000
161.29999060	0.00000000	64.82529000	25.26452000
161.49999059	0.00000000	64.82529000	25.26452000
161.69999058	0.00000000	64.82529000	25.30758000
161.89999056	0.00000000	64.82529000	25.68282000
162.09999055	0.00000000	64.82529000	26.42101000
162.29999054	0.00000000	64.82529000	26.79626000
162.49999053	0.00000000	64.82529000	26.83932000
162.69999052	0.00000000	64.82529000	26.83932000
162.89999051	0.00000000	64.82529000	26.83932000
163.09999049	0.00000000	64.82529000	26.83932000
163.29999048	0.00000000	64.78223000	26.79626000
163.49999047	0.00000000	64.40699000	26.42101000
163.69999046	0.00000000	63.71186000	25.68282000
163.89999045	0.00000000	63.71186000	25.30758000
164.09999043	0.00000000	64.40699000	25.30758000
164.29999042	0.00000000	64.78223000	25.68282000
164.49999041	0.00000000	64.82529000	26.37795000
164.69999040	0.00000000	64.82529000	26.37795000
164.89999039	0.00000000	64.86835000	25.68282000
165.09999037	0.00000000	65.20053000	25.30758000
165.29999036	0.00000000	65.56963000	25.30758000
165.49999035	0.00000000	65.20053000	25.63976000
165.69999034	0.00000000	64.86835000	26.00270000
165.89999033	0.00000000	64.78223000	25.63976000
166.09999032	0.00000000	64.40699000	25.30758000
166.29999030	0.00000000	63.66264000	25.26452000
166.49999029	0.00000000	63.33661000	25.30758000
166.69999028	0.00000000	63.66264000	25.63976000
166.89999027	0.00000000	64.40699000	26.00270000
167.09999026	0.00000000	64.78223000	25.63976000
167.29999024	0.00000000	64.82529000	25.30758000
167.49999023	0.00000000	64.82529000	25.26452000
167.69999022	0.00000000	64.82529000	25.26452000
167.89999021	0.00000000	64.82529000	25.26452000
168.09999020	0.00000000	64.82529000	25.26452000
168.29999018	0.00000000	64.82529000	25.26452000
168.49999017	0.00000000	64.82529000	25.26452000
168.69999016	0.00000000	64.82529000	25.26452000
168.89999015	0.00000000	64.82529000	25.26452000
169.09999014	0.00000000	64.82529000	25.26452000
169.29999013	0.00000000	64.78223000	25.26452000
169.49999011	0.00000000	64.45004000	25.26452000
169.69999010	0.00000000	64.08095000	25.26452000
169.89999009	0.00000000	64.45004000	25.26452000
170.09999008	0.00000000	64.78223000	25.26452000
170.29999007	0.00000000	64.82529000	25.26452000
170.49999005	0.00000000	64.82529000	25.26452000
170.69999004	0.00000000	64.82529000	25.26452000
170.89999003	0.00000000	64.82529000	25.26452000
171.09999002	0.00000000	64.82529000	25.26452000
171.29999001	0.00000000	64.82529000	25.26452000
171.49998999	0.00000000	64.82529000	25.26452000
171.69998998	0.00000000	64.82529000	25.26452000
171.89998997	0.00000000	64.82529000	25.26452000
172.09998996	0.00000000	64.78223000	25.26452000
172.29998995	0.00000000	64.45004000	25.26452000
172.49998994	0.00000000	64.08095000	25.26452000
172.69998992	0.00000000	64.45004000	25.26452000
172.89998991	0.00000000	64.73302000	25.26452000
173.09998990	0.00000000	64.45004000	25.26452000
173.29998989	0.00000000	64.08095000	25.26452000
173.49998988	0.00000000	64.45004000	25.26452000
173.69998986	0.00000000	64.78223000	25.26452000
173.89998985	0.00000000	64.82529000	25.26452000
174.09998984	0.00000000	64.82529000	25.26452000
174.29998983	0.00000000	64.82529000	25.26452000
174.49998982	0.00000000	64.82529000	25.26452000
174.69998980	0.00000000	64.82529000	25.26452000
174.89998979	0.00000000	64.82529000	25.26452000
175.09998978	0.00000000	64.82529000	25.26452000
175.29998977	0.00000000	64.82529000	25.26452000
175.49998976	0.00000000	64.78223000	25.26452000
175.69998975	0.00000000	64.45004000	25.26452000
175.89998973	0.00000000	64.08095000	25.26452000
176.09998972	0.00000000	64.45004000	25.26452000
176.29998971	0.00000000	64.78223000	25.26452000
176.49998970	0.00000000	64.82529000	25.26452000
176.69998969	0.00000000	64.82529000	25.26452000
176.89998967	0.00000000	64.82529000	25.26452000
177.09998966	0.00000000	64.82529000	25.26452000
177.29998965	0.00000000	64.82529000	25.26452000
177.49998964	0.00000000	64.78223000	25.22145000
177.69998963	0.00000000	64.45004000	24.93233000
177.89998961	0.00000000	64.03790000	24.89542000
178.09998960	0.00000000	64.07480000	25.62746000
178.29998959	0.00000000	63.99483000	25.59055000
178.49998958	0.00000000	64.03174000	25.30758000
178.69998957	0.00000000	63.66264000	25.26452000
178.89998956	0.00000000	63.66264000	25.26452000
179.09998954	0.00000000	64.03174000	25.30758000
179.29998953	0.00000000	64.03790000	25.68282000
179.49998952	0.00000000	64.45004000	26.37795000
179.69998951	0.00000000	64.78223000	26.37795000
179.89998950	0.00000000	64.82529000	25.68282000
180.09998948	0.00000000	64.82529000	25.30758000
180.29998947	0.00000000	64.82529000	25.26452000
180.49998946	0.00000000	64.78223000	25.26452000
180.69998945	0.00000000	64.40699000	25.26452000
180.89998944	0.00000000	63.66264000	25.26452000
181.09998942	0.00000000	63.28740000	25.26452000
181.29998941	0.00000000	63.28740000	25.30758000
181.49998940	0.00000000	63.66264000	25.68282000
181.69998939	0.00000000	64.40699000	26.37795000
181.89998938	0.00000000	64.78223000	26.37795000
182.09998937	0.00000000	64.82529000	25.68282000
182.29998935	0.00000000	64.82529000	25.30758000
182.49998934	0.00000000	64.82529000	25.26452000
182.69998933	0.00000000	64.82529000	25.26452000
182.89998932	0.00000000	64.82529000	25.26452000
183.09998931	0.00000000	64.78223000	25.26452000
183.29998929	0.00000000	64.45004000	25.26452000
183.49998928	0.00000000	64.03790000	25.26452000
183.69998927	0.00000000	64.03174000	25.26452000
183.89998926	0.00000000	63.61958000	25.26452000
184.09998925	0.00000000	63.28740000	25.26452000
184.29998923	0.00000000	63.24434000	25.26452000
184.49998922	0.00000000	63.24434000	25.30758000
184.69998921	0.00000000	63.24434000	25.63976000
184.89998920	0.00000000	63.24434000	26.00270000
185.09998919	0.00000000	63.24434000	25.63976000
185.29998918	0.00000000	63.24434000	25.30758000
185.49998916	0.00000000	63.28740000	25.26452000
185.69998915	0.00000000	63.66264000	25.26452000
185.89998914	0.00000000	64.40699000	25.22145000
186.09998913	0.00000000	64.78223000	24.84621000
186.29998912	0.00000000	64.78223000	24.10187000
186.49998910	0.00000000	64.40699000	23.77584000
186.69998909	0.00000000	63.66264000	24.10187000
186.89998908	0.00000000	63.28740000	24.84621000
187.09998907	0.00000000	63.24434000	25.22145000
187.29998906	0.00000000	63.24434000	25.26452000
187.49998904	0.00000000	63.24434000	25.30758000
187.69998903	0.00000000	63.24434000	25.68282000
187.89998902	0.00000000	63.24434000	26.37795000
188.09998901	0.00000000	63.24434000	26.37795000
188.29998900	0.00000000	63.24434000	25.68282000
188.49998899	0.00000000	63.28740000	25.26452000
188.69998897	0.00000000	63.61958000	24.88927000
188.89998896	0.00000000	64.03174000	24.52018000
189.09998895	0.00000000	64.03790000	24.88927000
189.29998894	0.00000000	64.45004000	25.22145000
189.49998893	0.00000000	64.73302000	25.26452000
189.69998891	0.00000000	64.40699000	25.26452000
189.89998890	0.00000000	63.66264000	25.26452000
190.09998889	0.00000000	63.28740000	25.30758000
190.29998888	0.00000000	63.24434000	25.63976000
190.49998887	0.00000000	63.24434000	26.00270000
190.69998885	0.00000000	63.24434000	25.63976000
190.89998884	0.00000000	63.24434000	25.30758000
191.09998883	0.00000000	63.24434000	25.26452000
191.29998882	0.00000000	63.28740000	25.26452000
191.49998881	0.00000000	63.61958000	25.26452000
191.69998880	0.00000000	63.98867000	25.26452000
191.89998878	0.00000000	63.66264000	25.26452000
192.09998877	0.00000000	63.66264000	25.26452000
192.29998876	0.00000000	63.98867000	25.26452000
192.49998875	0.00000000	63.61958000	25.26452000
192.69998874	0.00000000	63.28740000	25.26452000
192.89998872	0.00000000	63.28740000	25.26452000
193.09998871	0.00000000	63.61958000	25.26452000
193.29998870	0.00000000	64.03174000	25.26452000
193.49998869	0.00000000	63.99483000	25.26452000
193.69998868	0.00000000	64.03174000	25.26452000
193.89998866	0.00000000	63.66264000	25.30758000
194.09998865	0.00000000	63.66264000	25.68282000
194.29998864	0.00000000	64.03174000	26.42101000
194.49998863	0.00000000	64.03790000	26.74705000
194.69998862	0.00000000	64.40699000	26.42101000
194.89998861	0.00000000	64.40699000	25.68282000
195.09998859	0.00000000	64.08095000	25.30758000
195.29998858	0.00000000	64.40699000	25.26452000
195.49998857	0.00000000	64.40699000	25.26452000
195.69998856	0.00000000	64.03790000	25.26452000
195.89998855	0.00000000	64.03174000	25.26452000
196.09998853	0.00000000	63.61958000	25.26452000
