Time	Channel A	Channel B	Channel C
(us)	(V)	(mV)	(mV)

-4.59999956	0.00000000	66.40624000	26.42101000
-4.39999957	0.00000000	66.40624000	26.37795000
-4.19999958	0.00000000	66.40624000	25.72589000
-3.99999959	0.00000000	66.40624000	25.72589000
-3.79999960	0.00000000	66.40624000	26.42101000
-3.59999962	0.00000000	66.40624000	26.79626000
-3.39999963	0.00000000	66.40624000	26.79626000
-3.19999964	0.00000000	66.40624000	26.46407000
-2.99999965	0.00000000	66.40624000	26.10113000
-2.79999966	0.00000000	66.40624000	26.46407000
-2.59999968	0.00000000	66.40624000	26.79626000
-2.39999969	0.00000000	66.40624000	26.83932000
-2.19999970	0.00000000	66.40624000	26.83932000
-1.99999971	0.00000000	66.40624000	26.83932000
-1.79999972	0.00000000	66.40624000	26.83932000
-1.59999973	0.00000000	66.40624000	26.83932000
-1.39999975	0.00000000	66.40624000	26.83932000
-1.19999976	0.00000000	66.40624000	26.83932000
-0.99999977	0.00000000	66.40624000	26.83932000
-0.79999978	0.00000000	66.40624000	26.83932000
-0.59999979	0.00000000	66.40624000	26.83932000
-0.39999981	0.00000000	66.40624000	26.83932000
-0.19999982	0.31803640	66.40624000	26.83932000
0.00000017	0.79601380	66.40624000	26.83932000
0.20000016	0.95533960	66.40624000	26.83932000
0.40000015	0.95533960	66.40624000	26.83932000
0.60000013	0.79601380	66.40624000	26.83932000
0.80000012	0.15871060	66.40624000	26.83932000
1.00000011	-0.63668800	66.40624000	26.83932000
1.20000010	-1.59264300	66.40624000	26.83932000
1.40000009	-2.54859700	66.40624000	26.83932000
1.60000008	-2.70792300	66.40624000	26.83932000
1.80000006	-2.38927200	66.40624000	26.83932000
2.00000005	-0.95533960	66.40624000	26.83932000
2.20000004	0.95533960	66.40624000	26.83932000
2.40000003	3.02657500	66.40624000	26.83932000
2.60000002	4.61921700	66.40624000	26.83932000
2.80000000	5.41584600	66.36318000	26.79626000
2.99999999	4.61921700	66.03100000	26.42101000
3.19999998	2.54859700	65.66190000	25.68282000
3.39999997	-0.63668800	66.03100000	25.35679000
3.59999996	-4.14124000	66.36318000	25.68282000
3.79999994	-6.84916400	66.40624000	26.42101000
3.99999993	-7.96444400	66.36318000	26.79626000
4.19999992	-7.32714100	66.03100000	26.83932000
4.39999991	-4.45989200	65.66190000	26.83932000
4.59999990	-0.31803640	66.03100000	26.83932000
4.79999989	4.14124000	66.31397000	26.83932000
4.99999987	7.64579200	66.03100000	26.79626000
5.19999986	9.39837600	65.66190000	26.46407000
5.39999985	8.76107300	66.03100000	26.05807000
5.59999984	5.89382400	66.36318000	26.04577000
5.79999983	1.59264300	66.40624000	25.63976000
5.99999981	-3.18590100	66.40624000	25.35679000
6.19999980	-7.16781500	66.40624000	25.68282000
6.39999979	-9.23905000	66.40624000	26.42101000
6.59999978	-9.07972400	66.40624000	26.79626000
6.79999977	-6.53112700	66.40624000	26.83932000
6.99999975	-2.70792300	66.40624000	26.83932000
7.19999974	1.59264300	66.40624000	26.83932000
7.39999973	5.25652100	66.40624000	26.83932000
7.59999972	7.48646600	66.40624000	26.79626000
7.79999971	7.48646600	66.40624000	26.42101000
7.99999970	5.89382400	66.36318000	25.68282000
8.19999968	2.86724900	65.98794000	25.30758000
8.39999967	-0.31803640	65.29281000	25.30758000
8.59999966	-3.18590100	65.29281000	25.68282000
8.79999965	-4.93786900	65.98794000	26.42101000
8.99999964	-5.09719500	66.36318000	26.79626000
9.19999962	-4.14124000	66.40624000	26.83932000
9.39999961	-2.38927200	66.40624000	26.83932000
9.59999960	-0.31803640	66.40624000	26.83932000
9.79999959	1.27399100	66.40624000	26.83932000
9.99999958	2.22994600	66.40624000	26.79626000
10.19999956	2.54859700	66.36318000	26.42101000
10.39999955	2.07062000	65.98794000	25.68282000
10.59999954	1.27399100	65.29281000	25.35679000
10.79999953	0.31803640	65.24360000	25.68282000
10.99999952	-0.31803640	65.61269000	26.37795000
11.19999951	-0.79601380	65.61884000	26.37795000
11.39999949	-0.95533960	66.03100000	25.72589000
11.59999948	-0.95533960	66.36318000	25.72589000
11.79999947	-0.63668800	66.40624000	26.42101000
11.99999946	-0.31803640	66.40624000	26.79626000
12.19999945	-0.15871060	66.40624000	26.83932000
12.39999943	-0.15871060	66.40624000	26.79626000
12.59999942	-0.15871060	66.40624000	26.46407000
12.79999941	0.00000000	66.40624000	26.10113000
12.99999940	0.00000000	66.40624000	26.46407000
13.19999939	0.00000000	66.40624000	26.79626000
13.39999937	0.15871060	66.36318000	26.79626000
13.59999936	0.00000000	66.03100000	26.42101000
13.79999935	0.00000000	65.61884000	25.72589000
13.99999934	0.00000000	65.65575000	25.72589000
14.19999933	-0.15871060	65.57578000	26.42101000
14.39999932	-0.15871060	65.61269000	26.79626000
14.59999930	-0.15871060	65.24360000	26.83932000
14.79999929	0.00000000	65.29281000	26.83932000
14.99999928	0.00000000	65.98794000	26.83932000
15.19999927	0.00000000	66.36318000	26.83932000
15.39999926	0.00000000	66.40624000	26.83932000
15.59999924	0.00000000	66.36318000	26.83932000
15.79999923	0.00000000	65.98794000	26.83932000
15.99999922	0.00000000	65.29281000	26.83932000
16.19999921	0.00000000	65.24360000	26.79626000
16.39999920	-0.15871060	65.61269000	26.42101000
16.59999919	-0.15871060	65.61884000	25.68282000
16.79999917	-0.15871060	66.03100000	25.30758000
16.99999916	-0.15871060	66.40624000	25.30758000
17.19999915	0.00000000	66.82455000	25.68282000
17.39999914	0.00000000	67.57505000	26.37795000
17.59999913	0.00000000	67.90108000	26.37795000
17.79999911	0.00000000	67.57505000	25.68282000
17.99999910	0.00000000	66.78149000	25.35679000
18.19999909	0.00000000	65.98794000	25.68282000
18.39999908	0.00000000	64.73302000	26.42101000
18.59999907	0.00000000	62.86909000	26.79626000
18.79999905	0.00000000	60.96825000	26.79626000
18.99999904	0.00000000	60.21776000	26.42101000
19.19999903	0.00000000	60.59301000	25.72589000
19.39999902	0.00000000	62.21702000	25.68282000
19.59999901	0.00000000	65.29281000	26.04577000
19.79999900	0.00000000	69.19906000	26.05807000
19.99999898	0.00000000	73.01919000	26.46407000
20.19999897	0.00000000	76.08267000	26.74705000
20.39999896	0.00000000	76.83316000	26.46407000
20.59999895	0.00000000	75.30142000	26.05807000
20.79999894	0.00000000	71.67200000	26.09498000
20.99999892	0.00000000	65.43430000	26.05807000
21.19999891	0.00000000	57.38804000	26.46407000
21.39999890	0.00000000	50.07997000	26.79626000
21.59999889	0.00000000	45.47243000	26.79626000
21.79999888	0.00000000	44.77731000	26.42101000
21.99999886	0.00000000	49.14493000	25.72589000
22.19999885	0.00000000	58.40305000	25.72589000
22.39999884	0.00000000	70.78001000	26.37795000
22.59999883	0.00000000	83.15698000	26.42101000
22.79999882	0.00000000	93.15945000	26.10113000
22.99999881	0.00000000	98.04995000	26.46407000
23.19999879	0.00000000	95.26328000	26.83932000
23.39999878	0.00000000	84.83636000	27.25763000
23.59999877	0.00000000	68.97145000	27.95275000
23.79999876	0.00000000	51.15034000	28.00197000
23.99999875	0.00000000	34.95325000	27.63287000
24.19999873	0.00000000	24.25566000	27.62672000
24.39999872	0.00000000	22.81004000	27.17150000
24.59999871	0.00000000	31.69906000	26.42101000
24.79999870	0.00000000	49.09572000	25.17224000
24.99999869	0.00000000	71.15526000	23.30832000
25.19999867	0.00000000	93.11638000	21.40748000
25.39999866	0.00000000	109.67640000	20.66314000
25.59999865	0.00000000	116.19710000	21.03838000
25.79999864	0.00000000	111.21430000	22.61319000
25.99999863	0.00000000	95.68159000	25.35064000
26.19999862	0.00000000	72.92077000	28.83858000
26.39999860	0.00000000	47.80388000	32.68946000
26.59999859	0.00000000	26.62401000	35.75910000
26.79999858	0.00000000	14.20399000	37.24778000
26.99999857	0.00000000	13.45964000	36.36811000
27.19999856	0.00000000	24.25566000	32.14198000
27.39999854	0.00000000	44.35285000	25.59055000
27.59999853	0.00000000	69.06373000	18.57160000
27.79999852	0.00000000	92.60580000	11.60187000
27.99999851	0.00000000	109.59030000	6.35457700
28.19999850	0.00000000	115.82180000	5.23499000
28.39999848	0.00000000	110.51920000	9.09202700
28.59999847	0.00000000	95.85999000	16.89222000
28.79999846	0.00000000	75.34448000	27.72515000
28.99999845	0.00000000	53.33415000	39.65920000
29.19999844	0.00000000	34.76870000	49.28642000
29.39999843	0.00000000	23.92347000	54.71825000
29.59999841	0.00000000	22.63164000	54.58292000
29.79999840	0.00000000	30.34572000	47.98228000
29.99999839	0.00000000	44.59276000	35.62992000
30.19999838	0.00000000	62.45079000	20.57087000
30.39999837	0.00000000	79.81668000	5.89320800
30.59999835	0.00000000	93.39320000	-5.25959600
30.79999834	0.00000000	100.00610000	-9.86097400
30.99999833	0.00000000	98.93577000	-6.74827700
31.19999832	0.00000000	91.25246000	3.70324800
31.39999831	0.00000000	78.88164000	19.50049000
31.59999829	0.00000000	64.96062000	36.92175000
31.79999828	0.00000000	52.17150000	52.39911000
31.99999827	0.00000000	43.23941000	63.17667000
32.19999826	0.00000000	39.70226000	66.19709000
32.39999825	0.00000000	41.61540000	60.48228000
32.59999824	0.00000000	48.54207000	47.74852000
32.79999822	0.00000000	58.55069000	31.11466000
32.99999821	0.00000000	69.06373000	13.69340000
33.19999820	0.00000000	78.32800000	-0.98425190
33.39999819	0.00000000	84.50417000	-9.90403500
33.59999818	0.00000000	85.67297000	-11.44193000
33.79999816	0.00000000	82.27116000	-5.21653500
33.99999815	0.00000000	75.34448000	7.84325700
34.19999814	0.00000000	66.87376000	24.42790000
34.39999813	0.00000000	59.14739000	40.32357000
34.59999812	0.00000000	53.70940000	53.09424000
34.79999810	0.00000000	51.75319000	59.97170000
34.99999809	0.00000000	53.24187000	58.85826000
35.19999808	0.00000000	57.47416000	50.44291000
35.39999807	0.00000000	63.24434000	37.34006000
35.59999806	0.00000000	69.02066000	22.65625000
35.79999805	0.00000000	73.29601000	9.51033400
35.99999803	0.00000000	75.20915000	0.63976370
36.19999802	0.00000000	74.41560000	-2.05462600
36.39999801	0.00000000	70.60162000	2.12229300
36.59999800	0.00000000	65.29281000	11.73720000
36.79999799	0.00000000	60.63607000	24.00960000
36.99999797	0.00000000	57.51722000	35.94980000
37.19999796	0.00000000	56.36073000	44.03912000
37.39999795	0.00000000	57.56643000	46.77657000
37.59999794	0.00000000	61.01131000	43.70694000
37.79999793	0.00000000	65.98794000	35.67298000
37.99999791	0.00000000	70.55241000	25.35064000
38.19999790	0.00000000	73.34522000	15.73573000
38.39999789	0.00000000	74.13878000	9.59645700
38.59999788	0.00000000	73.34522000	8.48302100
38.79999787	0.00000000	70.60162000	13.08440000
38.99999786	0.00000000	66.40624000	22.19488000
39.19999784	0.00000000	62.13090000	32.09276000
39.39999783	0.00000000	58.63681000	39.43774000
39.59999782	0.00000000	56.31151000	42.55044000
39.79999781	0.00000000	55.93627000	40.96949000
39.99999780	0.00000000	57.47416000	34.83022000
40.19999778	0.00000000	60.54995000	25.63361000
40.39999777	0.00000000	64.45004000	16.43085000
40.59999776	0.00000000	68.31938000	9.51033400
40.79999775	0.00000000	71.85040000	6.85900500
40.99999774	0.00000000	74.13878000	9.55339400
41.19999772	0.00000000	74.92618000	16.80610000
41.39999771	0.00000000	73.76353000	26.42101000
41.59999770	0.00000000	71.06299000	35.62377000
41.79999769	0.00000000	67.52583000	42.17519000
41.99999768	0.00000000	63.29355000	44.13140000
42.19999767	0.00000000	59.47342000	41.48006000
42.39999765	0.00000000	57.47416000	35.29773000
42.59999764	0.00000000	57.05585000	26.83932000
42.79999763	0.00000000	57.80634000	18.43012000
42.99999762	0.00000000	59.79945000	12.62303000
43.19999761	0.00000000	62.45694000	10.62377000
43.39999759	0.00000000	65.56963000	12.11245000
43.59999758	0.00000000	67.85802000	16.33858000
43.79999757	0.00000000	69.10678000	22.14567000
43.99999756	0.00000000	69.48203000	28.28494000
44.19999755	0.00000000	69.15600000	33.29847000
44.39999753	0.00000000	68.41166000	35.62377000
44.59999752	0.00000000	67.99335000	35.34079000
44.79999751	0.00000000	67.57505000	33.02165000
44.99999750	0.00000000	66.82455000	29.58292000
45.19999749	0.00000000	66.40624000	25.72589000
45.39999748	0.00000000	65.93873000	22.61319000
45.59999746	0.00000000	64.73302000	20.66314000
45.79999745	0.00000000	62.77681000	19.87574000
45.99999744	0.00000000	60.08243000	20.66314000
46.19999743	0.00000000	57.43110000	22.57013000
46.39999742	0.00000000	55.89320000	25.26452000
46.59999740	0.00000000	55.93627000	27.90969000
46.79999739	0.00000000	57.94168000	29.49065000
46.99999738	0.00000000	62.21702000	29.95817000
47.19999737	0.00000000	68.03641000	29.90895000
47.39999736	0.00000000	74.18184000	29.11540000
47.59999734	0.00000000	79.15845000	27.17150000
47.79999733	0.00000000	81.02238000	24.88927000
47.99999732	0.00000000	79.10925000	22.52091000
48.19999731	0.00000000	73.67126000	20.66314000
48.39999730	0.00000000	65.94488000	19.91880000
48.59999729	0.00000000	57.43110000	21.03838000
48.79999727	0.00000000	50.12303000	23.35753000
48.99999726	0.00000000	45.93381000	26.10113000
49.19999725	0.00000000	46.35826000	29.58292000
49.39999724	0.00000000	51.75319000	32.56028000
49.59999723	0.00000000	60.54995000	33.71678000
49.79999721	0.00000000	70.22637000	32.60334000
49.99999720	0.00000000	78.32800000	29.95201000
50.19999719	0.00000000	83.34768000	26.79626000
50.39999718	0.00000000	83.72293000	23.30832000
50.59999717	0.00000000	79.48450000	19.87574000
50.79999715	0.00000000	71.75812000	17.96260000
50.99999714	0.00000000	62.17396000	17.91953000
51.19999713	0.00000000	53.70940000	19.50049000
51.39999712	0.00000000	48.67741000	22.61319000
51.59999711	0.00000000	47.89001000	26.83932000
51.79999710	0.00000000	51.75319000	31.02239000
51.99999708	0.00000000	59.01205000	33.76599000
52.19999707	0.00000000	67.48277000	34.55955000
52.39999706	0.00000000	74.79084000	33.76599000
52.59999705	0.00000000	79.02312000	31.06545000
52.79999704	0.00000000	79.06618000	27.21457000
52.99999702	0.00000000	75.20915000	23.35138000
53.19999701	0.00000000	68.68848000	19.87574000
53.39999700	0.00000000	61.01131000	18.01181000
53.59999699	0.00000000	54.91510000	18.33784000
53.79999698	0.00000000	52.12844000	20.61393000
53.99999696	0.00000000	52.90969000	23.68356000
54.19999695	0.00000000	56.73597000	26.75320000
54.39999694	0.00000000	62.91830000	29.02928000
54.59999693	0.00000000	69.39591000	29.49065000
54.79999692	0.00000000	74.41560000	28.75246000
54.99999691	0.00000000	76.32258000	27.58366000
55.19999689	0.00000000	74.83390000	25.63976000
55.39999688	0.00000000	70.60162000	23.81890000
55.59999687	0.00000000	64.82529000	23.03149000
55.79999686	0.00000000	59.09818000	23.77584000
55.99999685	0.00000000	55.24114000	25.30758000
56.19999683	0.00000000	54.40452000	27.21457000
56.39999682	0.00000000	55.93627000	29.07234000
56.59999681	0.00000000	59.43036000	29.40452000
56.79999680	0.00000000	64.40699000	27.90969000
56.99999679	0.00000000	69.02066000	25.21530000
57.19999677	0.00000000	72.13951000	22.15182000
57.39999676	0.00000000	73.29601000	19.45743000
57.59999675	0.00000000	72.13951000	17.96260000
57.79999674	0.00000000	69.10678000	18.38706000
57.99999673	0.00000000	65.24360000	21.12451000
58.19999672	0.00000000	61.79872000	25.72589000
58.39999670	0.00000000	59.43036000	31.06545000
58.59999669	0.00000000	58.67987000	35.24852000
58.79999668	0.00000000	59.38730000	36.82948000
58.99999667	0.00000000	61.33120000	35.67298000
59.19999666	0.00000000	63.61958000	32.18504000
59.39999664	0.00000000	65.94488000	26.75320000
59.59999663	0.00000000	67.48277000	20.57087000
59.79999662	0.00000000	67.90108000	14.85605000
59.99999661	0.00000000	67.52583000	11.46038000
60.19999660	0.00000000	66.40624000	12.20472000
60.39999658	0.00000000	65.24360000	16.38164000
60.59999657	0.00000000	64.45004000	22.57013000
60.79999656	0.00000000	63.66264000	29.53371000
60.99999655	0.00000000	63.33661000	35.71604000
61.19999654	0.00000000	63.66264000	39.94832000
61.39999653	0.00000000	64.40699000	41.01255000
61.59999651	0.00000000	64.78223000	37.94907000
61.79999650	0.00000000	64.82529000	31.39763000
61.99999649	0.00000000	64.78223000	23.35138000
62.19999648	0.00000000	64.40699000	15.69267000
62.39999647	0.00000000	63.66264000	11.04208000
62.59999645	0.00000000	63.24434000	10.16240000
62.79999644	0.00000000	62.86909000	12.11245000
62.99999643	0.00000000	62.54921000	16.84916000
63.19999642	0.00000000	63.33661000	24.10187000
63.39999641	0.00000000	64.78223000	31.80979000
63.59999639	0.00000000	65.98794000	37.62303000
63.79999638	0.00000000	66.78149000	41.10482000
63.99999637	0.00000000	67.52583000	41.01255000
64.19999636	0.00000000	67.48277000	36.87869000
64.39999635	0.00000000	66.36318000	30.37647000
64.59999634	0.00000000	64.82529000	23.77584000
64.79999632	0.00000000	63.24434000	17.91953000
64.99999631	0.00000000	61.75566000	13.73647000
65.19999630	0.00000000	61.01131000	12.53076000
65.39999629	0.00000000	61.75566000	14.38853000
65.59999628	0.00000000	63.24434000	17.83341000
65.79999626	0.00000000	64.78223000	22.14567000
65.99999625	0.00000000	65.93873000	26.79626000
66.19999624	0.00000000	66.31397000	31.06545000
66.39999623	0.00000000	65.93873000	34.13509000
66.59999622	0.00000000	64.78223000	35.34079000
66.79999620	0.00000000	63.28740000	34.64567000
66.99999619	0.00000000	62.13090000	33.06471000
67.19999618	0.00000000	61.75566000	30.69636000
67.39999617	0.00000000	62.13090000	27.21457000
67.59999616	0.00000000	63.33661000	23.77584000
67.79999615	0.00000000	65.24360000	20.94611000
67.99999613	0.00000000	67.57505000	18.61466000
68.19999612	0.00000000	69.43897000	16.71383000
68.39999611	0.00000000	70.22637000	16.33858000
68.59999610	0.00000000	69.39591000	17.50123000
68.79999609	0.00000000	67.06447000	19.82652000
68.99999607	0.00000000	63.20127000	23.35138000
69.19999606	0.00000000	59.01205000	27.21457000
69.39999605	0.00000000	55.93627000	31.15772000
69.59999604	0.00000000	54.77977000	34.55955000
69.79999603	0.00000000	55.93627000	36.45423000
69.99999601	0.00000000	59.01205000	35.62377000
70.19999600	0.00000000	63.29355000	32.27116000
70.39999599	0.00000000	67.94415000	27.63287000
70.59999598	0.00000000	72.18258000	23.30832000
70.79999597	0.00000000	74.87697000	18.98991000
70.99999596	0.00000000	75.25220000	15.22515000
71.19999594	0.00000000	73.29601000	13.69340000
71.39999593	0.00000000	69.02066000	14.84990000
71.59999592	0.00000000	63.24434000	18.29478000
71.79999591	0.00000000	57.47416000	23.30832000
71.99999590	0.00000000	53.24187000	28.28494000
72.19999588	0.00000000	51.66092000	32.18504000
72.39999587	0.00000000	52.82357000	34.09203000
72.59999586	0.00000000	56.31151000	33.80905000
72.79999585	0.00000000	61.71259000	31.86516000
72.99999584	0.00000000	67.48277000	29.16461000
73.19999582	0.00000000	72.13951000	25.68282000
73.39999581	0.00000000	74.87697000	22.65625000
73.59999580	0.00000000	75.25220000	21.08145000
73.79999579	0.00000000	73.34522000	21.03838000
73.99999578	0.00000000	69.43897000	22.15182000
74.19999577	0.00000000	64.45004000	23.68356000
74.39999575	0.00000000	59.43036000	25.17224000
74.59999574	0.00000000	55.98548000	25.95964000
74.79999573	0.00000000	54.77977000	25.59055000
74.99999572	0.00000000	55.89320000	24.84621000
75.19999571	0.00000000	58.59375000	23.68356000
75.39999569	0.00000000	62.03863000	22.61319000
75.59999568	0.00000000	65.52657000	22.65625000
75.79999567	0.00000000	67.85802000	24.19414000
75.99999566	0.00000000	69.06373000	26.88853000
76.19999565	0.00000000	69.06373000	29.90895000
76.39999563	0.00000000	67.94415000	32.18504000
76.59999562	0.00000000	66.40624000	32.56028000
76.79999561	0.00000000	64.86835000	31.06545000
76.99999560	0.00000000	63.71186000	28.32800000
77.19999559	0.00000000	63.28740000	24.79700000
77.39999558	0.00000000	63.24434000	20.57087000
77.59999556	0.00000000	63.28740000	16.80610000
77.79999555	0.00000000	63.61958000	15.22515000
77.99999554	0.00000000	63.93946000	16.01255000
78.19999553	0.00000000	63.20127000	18.75615000
78.39999552	0.00000000	62.13090000	23.77584000
78.59999550	0.00000000	61.70644000	29.49065000
78.79999549	0.00000000	61.70644000	34.09203000
78.99999548	0.00000000	62.17396000	36.45423000
79.19999547	0.00000000	63.71186000	36.13435000
79.39999546	0.00000000	65.98794000	34.18430000
79.59999544	0.00000000	67.90108000	30.64714000
79.79999543	0.00000000	69.06373000	25.68282000
79.99999542	0.00000000	69.06373000	21.08145000
80.19999541	0.00000000	67.90108000	17.91953000
80.39999540	0.00000000	65.94488000	16.33858000
80.59999539	0.00000000	63.24434000	16.33858000
80.79999537	0.00000000	60.59301000	17.91953000
80.99999536	0.00000000	59.01205000	20.98917000
81.19999535	0.00000000	58.63681000	24.84621000
81.39999534	0.00000000	59.38730000	28.32800000
81.59999533	0.00000000	61.33120000	31.06545000
81.79999531	0.00000000	63.66264000	32.64640000
81.99999530	0.00000000	66.36318000	33.02165000
82.19999529	0.00000000	68.64542000	32.22810000
82.39999528	0.00000000	69.43897000	29.95201000
82.59999527	0.00000000	69.06373000	27.30684000
82.79999525	0.00000000	67.52583000	25.26452000
82.99999524	0.00000000	65.24360000	23.26525000
83.19999523	0.00000000	63.28740000	20.94611000
83.39999522	0.00000000	61.75566000	19.03912000
83.59999521	0.00000000	60.96825000	17.91953000
83.79999520	0.00000000	61.33120000	18.33784000
83.99999518	0.00000000	62.08169000	20.61393000
84.19999517	0.00000000	63.24434000	23.68356000
84.39999516	0.00000000	64.35777000	26.83932000
84.59999515	0.00000000	64.78223000	29.95201000
84.79999514	0.00000000	64.82529000	32.60334000
84.99999512	0.00000000	64.82529000	33.76599000
85.19999511	0.00000000	64.82529000	32.97859000
85.39999510	0.00000000	64.82529000	30.64714000
85.59999509	0.00000000	64.82529000	26.74705000
85.79999508	0.00000000	64.82529000	22.19488000
85.99999506	0.00000000	64.82529000	18.29478000
86.19999505	0.00000000	64.78223000	15.96334000
86.39999504	0.00000000	64.40699000	15.22515000
86.59999503	0.00000000	63.61958000	16.76304000
86.79999502	0.00000000	62.82603000	20.23868000
86.99999501	0.00000000	61.70644000	24.52018000
87.19999499	0.00000000	60.96825000	29.53371000
87.39999498	0.00000000	61.33120000	33.67372000
87.59999497	0.00000000	62.08169000	35.25467000
87.79999496	0.00000000	63.28740000	34.09203000
87.99999495	0.00000000	64.78223000	30.64714000
88.19999493	0.00000000	65.98794000	25.68282000
88.39999492	0.00000000	66.73843000	21.03838000
88.59999491	0.00000000	67.10752000	17.54429000
88.79999490	0.00000000	66.32012000	15.64345000
88.99999489	0.00000000	64.86835000	16.47392000
89.19999487	0.00000000	63.66264000	19.87574000
89.39999486	0.00000000	62.86909000	24.88927000
89.59999485	0.00000000	62.08169000	29.86589000
89.79999484	0.00000000	61.70644000	33.71678000
89.99999483	0.00000000	61.70644000	35.25467000
90.19999482	0.00000000	62.13090000	34.13509000
90.39999480	0.00000000	63.24434000	31.06545000
90.59999479	0.00000000	64.35777000	26.79626000
90.79999478	0.00000000	64.78223000	22.14567000
90.99999477	0.00000000	64.82529000	17.96260000
91.19999476	0.00000000	64.78223000	15.73573000
91.39999474	0.00000000	64.45004000	16.84916000
91.59999473	0.00000000	64.08095000	20.61393000
91.79999472	0.00000000	64.45004000	25.26452000
91.99999471	0.00000000	64.78223000	29.86589000
92.19999470	0.00000000	64.82529000	33.34769000
92.39999468	0.00000000	64.82529000	34.51033000
92.59999467	0.00000000	64.78223000	33.71678000
92.79999466	0.00000000	64.35777000	30.60408000
92.99999465	0.00000000	63.24434000	25.68282000
93.19999464	0.00000000	62.08169000	21.08145000
93.39999463	0.00000000	61.28814000	17.96260000
93.59999461	0.00000000	60.54995000	16.80610000
93.79999460	0.00000000	60.59301000	17.96260000
93.99999459	0.00000000	61.70644000	21.03838000
94.19999458	0.00000000	63.28740000	25.26452000
94.39999457	0.00000000	65.24360000	29.44759000
94.59999455	0.00000000	67.52583000	32.14198000
94.79999454	0.00000000	69.06373000	32.56028000
94.99999453	0.00000000	69.43897000	31.02239000
95.19999452	0.00000000	68.64542000	27.95275000
95.39999451	0.00000000	66.32012000	24.10187000
95.59999449	0.00000000	63.24434000	20.66314000
95.79999448	0.00000000	60.12549000	18.38706000
95.99999447	0.00000000	57.47416000	18.38706000
96.19999446	0.00000000	56.31151000	20.61393000
96.39999445	0.00000000	57.05585000	23.68356000
96.59999444	0.00000000	59.01205000	26.79626000
96.79999442	0.00000000	62.13090000	29.44759000
96.99999441	0.00000000	65.98794000	30.60408000
97.19999440	0.00000000	69.43897000	29.90895000
97.39999439	0.00000000	71.76427000	28.37721000
97.59999438	0.00000000	72.13951000	26.42101000
97.79999436	0.00000000	70.64468000	24.10187000
97.99999435	0.00000000	67.90108000	22.23794000
98.19999434	0.00000000	64.36392000	21.40748000
98.39999433	0.00000000	60.17470000	21.77658000
98.59999432	0.00000000	56.73597000	22.52091000
98.79999430	0.00000000	55.51796000	23.68356000
98.99999429	0.00000000	55.85014000	24.84621000
99.19999428	0.00000000	57.47416000	25.63976000
99.39999427	0.00000000	60.54995000	26.42101000
99.59999426	0.00000000	64.40699000	26.79626000
99.79999425	0.00000000	67.85802000	26.83932000
99.99999423	0.00000000	70.22637000	26.83932000
100.19999422	0.00000000	71.01993000	26.83932000
100.39999421	0.00000000	70.64468000	26.83932000
100.59999420	0.00000000	69.06373000	26.83932000
100.79999419	0.00000000	66.36318000	26.79626000
100.99999417	0.00000000	63.24434000	26.32874000
101.19999416	0.00000000	60.17470000	24.79700000
101.39999415	0.00000000	57.84941000	22.57013000
101.59999414	0.00000000	57.05585000	21.03838000
101.79999413	0.00000000	57.43110000	20.62008000
101.99999411	0.00000000	58.96899000	20.98917000
102.19999410	0.00000000	61.24508000	22.19488000
102.39999409	0.00000000	63.20127000	24.14493000
102.59999408	0.00000000	64.82529000	26.83932000
102.79999407	0.00000000	66.36318000	29.49065000
102.99999406	0.00000000	67.52583000	31.06545000
103.19999404	0.00000000	67.85802000	31.39763000
103.39999403	0.00000000	67.10752000	30.22884000
103.59999402	0.00000000	65.20053000	27.17150000
103.79999401	0.00000000	63.28740000	23.77584000
103.99999400	0.00000000	61.66338000	20.98917000
104.19999398	0.00000000	60.12549000	19.08218000
104.39999397	0.00000000	59.01205000	18.33784000
104.59999396	0.00000000	59.01205000	19.50049000
104.79999395	0.00000000	60.12549000	22.15182000
104.99999394	0.00000000	61.66338000	25.21530000
105.19999392	0.00000000	63.24434000	27.90969000
105.39999391	0.00000000	64.78223000	29.49065000
105.59999390	0.00000000	65.93873000	29.90895000
105.79999389	0.00000000	66.27091000	29.49065000
105.99999388	0.00000000	65.56963000	27.90969000
106.19999387	0.00000000	64.03790000	25.26452000
106.39999385	0.00000000	62.91216000	22.61319000
106.59999384	0.00000000	62.08169000	21.03838000
106.79999383	0.00000000	61.70644000	20.66314000
106.99999382	0.00000000	61.70644000	21.40748000
107.19999381	0.00000000	62.13090000	23.30832000
107.39999379	0.00000000	63.24434000	25.21530000
107.59999378	0.00000000	64.35777000	26.79626000
107.79999377	0.00000000	64.78223000	27.90969000
107.99999376	0.00000000	64.78223000	27.90969000
108.19999375	0.00000000	64.40699000	26.79626000
108.39999374	0.00000000	63.61958000	25.26452000
108.59999372	0.00000000	62.82603000	23.72662000
108.79999371	0.00000000	61.70644000	22.57013000
108.99999370	0.00000000	60.96825000	22.19488000
109.19999369	0.00000000	61.33120000	22.57013000
109.39999368	0.00000000	62.03863000	23.72662000
109.59999366	0.00000000	62.86909000	25.26452000
109.79999365	0.00000000	63.66264000	26.79626000
109.99999364	0.00000000	64.82529000	27.95275000
110.19999363	0.00000000	65.89567000	28.32800000
110.39999362	0.00000000	65.89567000	27.95275000
110.59999360	0.00000000	64.82529000	26.79626000
110.79999359	0.00000000	63.66264000	25.30758000
110.99999358	0.00000000	62.86909000	24.10187000
111.19999357	0.00000000	62.03863000	23.30832000
111.39999356	0.00000000	61.33120000	22.52091000
111.59999355	0.00000000	60.96825000	22.19488000
111.79999353	0.00000000	61.70644000	22.57013000
111.99999352	0.00000000	62.77681000	23.68356000
112.19999351	0.00000000	63.24434000	24.84621000
112.39999350	0.00000000	63.66264000	25.63976000
112.59999349	0.00000000	64.40699000	26.42101000
112.79999347	0.00000000	64.73302000	26.79626000
112.99999346	0.00000000	64.40699000	26.83932000
113.19999345	0.00000000	63.66264000	26.79626000
113.39999344	0.00000000	63.28740000	26.42101000
113.59999343	0.00000000	63.24434000	25.63976000
113.79999341	0.00000000	63.24434000	24.88927000
113.99999340	0.00000000	63.24434000	24.10187000
114.19999339	0.00000000	63.20127000	23.72662000
114.39999338	0.00000000	62.86909000	23.68356000
114.59999337	0.00000000	62.50000000	23.64050000
114.79999336	0.00000000	62.86909000	23.30832000
114.99999334	0.00000000	63.20127000	22.93922000
115.19999333	0.00000000	63.24434000	23.30832000
115.39999332	0.00000000	63.24434000	23.68356000
115.59999331	0.00000000	63.24434000	24.10187000
115.79999330	0.00000000	63.24434000	24.84621000
115.99999328	0.00000000	63.24434000	25.26452000
116.19999327	0.00000000	63.24434000	25.68282000
116.39999326	0.00000000	63.20127000	26.42101000
116.59999325	0.00000000	62.82603000	26.79626000
116.79999324	0.00000000	62.08169000	26.79626000
116.99999322	0.00000000	61.70644000	26.37795000
117.19999321	0.00000000	61.70644000	25.26452000
117.39999320	0.00000000	62.13090000	24.10187000
117.59999319	0.00000000	63.24434000	23.30832000
117.79999318	0.00000000	64.35777000	22.52091000
117.99999317	0.00000000	64.78223000	22.14567000
118.19999315	0.00000000	64.78223000	22.14567000
118.39999314	0.00000000	64.40699000	22.57013000
118.59999313	0.00000000	63.61958000	23.68356000
118.79999312	0.00000000	62.82603000	24.84621000
118.99999311	0.00000000	61.66338000	25.63976000
119.19999309	0.00000000	60.54995000	26.42101000
119.39999308	0.00000000	60.12549000	26.74705000
119.59999307	0.00000000	60.12549000	26.46407000
119.79999306	0.00000000	60.50073000	26.05807000
119.99999305	0.00000000	61.33120000	26.04577000
120.19999303	0.00000000	62.50000000	25.59055000
120.39999302	0.00000000	64.40699000	24.88927000
120.59999301	0.00000000	65.89567000	24.10187000
120.79999300	0.00000000	66.31397000	23.72662000
120.99999299	0.00000000	65.93873000	23.68356000
121.19999298	0.00000000	64.82529000	23.68356000
121.39999296	0.00000000	63.66264000	23.72662000
121.59999295	0.00000000	62.82603000	24.05881000
121.79999294	0.00000000	61.66338000	24.47096000
121.99999293	0.00000000	60.54995000	24.47712000
122.19999292	0.00000000	60.17470000	24.93233000
122.39999290	0.00000000	60.50073000	25.59055000
122.59999289	0.00000000	61.28814000	26.04577000
122.79999288	0.00000000	62.08169000	26.05807000
122.99999287	0.00000000	63.24434000	26.46407000
123.19999286	0.00000000	64.35777000	26.74705000
123.39999284	0.00000000	64.78223000	26.42101000
123.59999283	0.00000000	64.82529000	25.68282000
123.79999282	0.00000000	64.78223000	25.26452000
123.99999281	0.00000000	64.40699000	24.84621000
124.19999280	0.00000000	63.61958000	24.10187000
124.39999279	0.00000000	62.86909000	23.72662000
124.59999277	0.00000000	62.03863000	23.68356000
124.79999276	0.00000000	61.28814000	23.72662000
124.99999275	0.00000000	60.50073000	24.10187000
125.19999274	0.00000000	60.17470000	24.84621000
125.39999273	0.00000000	60.50073000	25.26452000
125.59999271	0.00000000	61.28814000	25.63976000
125.79999270	0.00000000	62.03863000	26.00270000
125.99999269	0.00000000	62.86909000	25.63976000
126.19999268	0.00000000	63.61958000	25.35679000
126.39999267	0.00000000	64.40699000	25.63976000
126.59999265	0.00000000	64.78223000	26.00270000
126.79999264	0.00000000	64.78223000	25.59055000
126.99999263	0.00000000	64.40699000	24.88927000
127.19999262	0.00000000	63.61958000	24.10187000
127.39999261	0.00000000	62.82603000	23.77584000
127.59999260	0.00000000	61.66338000	24.10187000
127.79999258	0.00000000	60.54995000	24.84621000
127.99999257	0.00000000	60.17470000	25.22145000
128.19999256	0.00000000	60.54995000	25.26452000
128.39999255	0.00000000	61.70644000	25.26452000
128.59999254	0.00000000	63.20127000	25.26452000
128.79999252	0.00000000	64.35777000	25.26452000
128.99999251	0.00000000	64.78223000	25.26452000
129.19999250	0.00000000	64.78223000	25.22145000
129.39999249	0.00000000	64.40699000	24.84621000
129.59999248	0.00000000	63.61958000	24.10187000
129.79999246	0.00000000	62.86909000	23.72662000
129.99999245	0.00000000	62.03863000	23.68356000
130.19999244	0.00000000	61.28814000	23.68356000
130.39999243	0.00000000	60.54995000	23.72662000
130.59999242	0.00000000	60.54995000	24.10187000
130.79999241	0.00000000	61.28814000	24.84621000
130.99999239	0.00000000	62.03863000	25.22145000
131.19999238	0.00000000	62.82603000	25.26452000
131.39999237	0.00000000	63.20127000	25.26452000
131.59999236	0.00000000	63.24434000	25.22145000
131.79999235	0.00000000	63.24434000	24.84621000
131.99999233	0.00000000	63.20127000	24.10187000
132.19999232	0.00000000	62.82603000	23.72662000
132.39999231	0.00000000	62.08169000	23.68356000
132.59999230	0.00000000	61.70644000	23.72662000
132.79999229	0.00000000	61.66338000	24.10187000
132.99999227	0.00000000	61.70644000	24.88927000
133.19999226	0.00000000	62.03863000	25.63976000
133.39999225	0.00000000	62.45079000	26.42101000
133.59999224	0.00000000	62.41388000	26.79626000
133.79999223	0.00000000	62.45079000	26.79626000
133.99999222	0.00000000	62.03863000	26.37795000
134.19999220	0.00000000	61.70644000	25.26452000
134.39999219	0.00000000	61.70644000	24.10187000
134.59999218	0.00000000	62.08169000	23.30832000
134.79999217	0.00000000	62.82603000	22.52091000
134.99999216	0.00000000	63.20127000	22.19488000
135.19999214	0.00000000	63.24434000	22.52091000
135.39999213	0.00000000	63.24434000	23.26525000
135.59999212	0.00000000	63.20127000	23.68356000
135.79999211	0.00000000	62.82603000	24.10187000
135.99999210	0.00000000	62.08169000	24.88927000
136.19999208	0.00000000	61.66338000	25.63976000
136.39999207	0.00000000	61.24508000	26.42101000
136.59999206	0.00000000	60.54995000	26.79626000
136.79999205	0.00000000	60.54995000	26.79626000
136.99999204	0.00000000	61.28814000	26.37795000
137.19999203	0.00000000	62.03863000	25.26452000
137.39999201	0.00000000	62.82603000	24.15108000
137.59999200	0.00000000	63.24434000	23.72662000
137.79999199	0.00000000	63.61958000	23.68356000
137.99999198	0.00000000	63.98867000	23.68356000
138.19999197	0.00000000	63.57652000	23.68356000
138.39999195	0.00000000	62.86909000	23.68356000
138.59999194	0.00000000	62.08169000	23.72662000
138.79999193	0.00000000	61.70644000	24.10187000
138.99999192	0.00000000	61.66338000	24.88927000
139.19999191	0.00000000	61.66338000	25.63976000
139.39999189	0.00000000	61.66338000	26.42101000
139.59999188	0.00000000	61.70644000	26.79626000
139.79999187	0.00000000	62.08169000	26.83932000
139.99999186	0.00000000	62.86909000	26.79626000
140.19999185	0.00000000	63.57652000	26.37795000
140.39999184	0.00000000	63.98867000	25.26452000
140.59999182	0.00000000	63.61958000	24.15108000
140.79999181	0.00000000	63.24434000	23.72662000
140.99999180	0.00000000	62.82603000	23.68356000
141.19999179	0.00000000	62.08169000	23.68356000
141.39999178	0.00000000	61.70644000	23.72662000
141.59999176	0.00000000	61.66338000	24.10187000
141.79999175	0.00000000	61.70644000	24.88927000
141.99999174	0.00000000	62.08169000	25.63976000
142.19999173	0.00000000	62.82603000	26.42101000
142.39999172	0.00000000	63.20127000	26.74705000
142.59999170	0.00000000	63.24434000	26.42101000
142.79999169	0.00000000	63.24434000	25.68282000
142.99999168	0.00000000	63.20127000	25.26452000
143.19999167	0.00000000	62.82603000	24.84621000
143.39999166	0.00000000	62.08169000	24.05881000
143.59999165	0.00000000	61.70644000	23.30832000
143.79999163	0.00000000	61.66338000	22.57013000
143.99999162	0.00000000	61.66338000	22.57013000
144.19999161	0.00000000	61.70644000	23.30832000
144.39999160	0.00000000	62.08169000	24.05881000
144.59999159	0.00000000	62.82603000	24.84621000
144.79999157	0.00000000	63.20127000	25.26452000
144.99999156	0.00000000	63.24434000	25.63976000
145.19999155	0.00000000	63.20127000	26.00270000
145.39999154	0.00000000	62.82603000	25.63976000
145.59999153	0.00000000	62.08169000	25.26452000
145.79999151	0.00000000	61.70644000	24.84621000
145.99999150	0.00000000	61.66338000	24.10187000
146.19999149	0.00000000	61.66338000	23.72662000
146.39999148	0.00000000	61.70644000	23.68356000
146.59999147	0.00000000	62.03863000	23.68356000
146.79999146	0.00000000	62.45079000	23.68356000
146.99999144	0.00000000	62.45694000	23.72662000
147.19999143	0.00000000	62.86909000	24.10187000
147.39999142	0.00000000	63.20127000	24.84621000
147.59999141	0.00000000	63.20127000	25.22145000
147.79999140	0.00000000	62.82603000	25.26452000
147.99999138	0.00000000	62.08169000	25.26452000
148.19999137	0.00000000	61.70644000	25.26452000
148.39999136	0.00000000	61.66338000	25.22145000
148.59999135	0.00000000	61.66338000	24.84621000
148.79999134	0.00000000	61.66338000	24.10187000
148.99999132	0.00000000	61.66338000	23.72662000
149.19999131	0.00000000	61.70644000	23.68356000
149.39999130	0.00000000	62.08169000	23.68356000
149.59999129	0.00000000	62.82603000	23.72662000
149.79999128	0.00000000	63.20127000	24.10187000
149.99999127	0.00000000	63.24434000	24.84621000
150.19999125	0.00000000	63.24434000	25.22145000
150.39999124	0.00000000	63.20127000	25.26452000
150.59999123	0.00000000	62.82603000	25.26452000
150.79999122	0.00000000	62.08169000	25.26452000
150.99999121	0.00000000	61.70644000	25.26452000
151.19999119	0.00000000	61.66338000	25.26452000
151.39999118	0.00000000	61.66338000	25.22145000
151.59999117	0.00000000	61.66338000	24.84621000
151.79999116	0.00000000	61.66338000	24.10187000
151.99999115	0.00000000	61.70644000	23.72662000
152.19999113	0.00000000	62.03863000	23.72662000
152.39999112	0.00000000	62.45079000	24.05881000
152.59999111	0.00000000	62.45694000	24.42790000
152.79999110	0.00000000	62.86909000	24.05881000
152.99999109	0.00000000	63.20127000	23.77584000
153.19999108	0.00000000	63.20127000	24.10187000
153.39999106	0.00000000	62.82603000	24.84621000
153.59999105	0.00000000	62.08169000	25.22145000
153.79999104	0.00000000	61.70644000	25.26452000
153.99999103	0.00000000	61.62032000	25.26452000
154.19999102	0.00000000	61.28814000	25.26452000
154.39999100	0.00000000	60.91904000	25.26452000
154.59999099	0.00000000	61.28814000	25.22145000
154.79999098	0.00000000	61.62032000	24.84621000
154.99999097	0.00000000	61.70644000	24.10187000
155.19999096	0.00000000	62.08169000	23.77584000
155.39999094	0.00000000	62.82603000	24.05881000
155.59999093	0.00000000	63.20127000	24.42790000
155.79999092	0.00000000	63.24434000	24.05881000
155.99999091	0.00000000	63.20127000	23.77584000
156.19999090	0.00000000	62.82603000	24.10187000
156.39999089	0.00000000	62.08169000	24.84621000
156.59999087	0.00000000	61.70644000	25.22145000
156.79999086	0.00000000	61.62032000	25.26452000
156.99999085	0.00000000	61.24508000	25.26452000
157.19999084	0.00000000	60.54995000	25.26452000
157.39999083	0.00000000	60.54995000	25.26452000
157.59999081	0.00000000	61.24508000	25.22145000
157.79999080	0.00000000	61.62032000	24.84621000
157.99999079	0.00000000	61.66338000	24.10187000
158.19999078	0.00000000	61.70644000	23.72662000
158.39999077	0.00000000	62.08169000	23.68356000
158.59999075	0.00000000	62.82603000	23.68356000
158.79999074	0.00000000	63.15207000	23.68356000
158.99999073	0.00000000	62.82603000	23.72662000
159.19999072	0.00000000	62.08169000	24.10187000
159.39999071	0.00000000	61.70644000	24.84621000
159.59999070	0.00000000	61.66338000	25.26452000
159.79999068	0.00000000	61.66338000	25.63976000
159.99999067	0.00000000	61.62032000	26.00270000
160.19999066	0.00000000	61.28814000	25.63976000
160.39999065	0.00000000	60.91904000	25.30758000
160.59999064	0.00000000	61.28814000	25.22145000
160.79999062	0.00000000	61.62032000	24.84621000
160.99999061	0.00000000	61.66338000	24.10187000
161.19999060	0.00000000	61.66338000	23.72662000
161.39999059	0.00000000	61.66338000	23.68356000
161.59999058	0.00000000	61.66338000	23.68356000
161.79999056	0.00000000	61.66338000	23.68356000
161.99999055	0.00000000	61.66338000	23.68356000
162.19999054	0.00000000	61.66338000	23.72662000
162.39999053	0.00000000	61.66338000	24.05881000
162.59999052	0.00000000	61.66338000	24.47096000
162.79999051	0.00000000	61.66338000	24.47712000
162.99999049	0.00000000	61.66338000	24.84621000
163.19999048	0.00000000	61.62032000	24.79700000
163.39999047	0.00000000	61.24508000	24.10187000
163.59999046	0.00000000	60.54995000	23.72662000
163.79999045	0.00000000	60.54995000	23.68356000
163.99999043	0.00000000	61.24508000	23.68356000
164.19999042	0.00000000	61.62032000	23.72662000
164.39999041	0.00000000	61.70644000	24.05881000
164.59999040	0.00000000	62.03863000	24.42790000
164.79999039	0.00000000	62.45079000	24.05881000
164.99999037	0.00000000	62.45694000	23.77584000
165.19999036	0.00000000	62.82603000	24.05881000
165.39999035	0.00000000	62.77681000	24.42790000
165.59999034	0.00000000	62.08169000	24.10187000
165.79999033	0.00000000	61.70644000	24.15108000
165.99999032	0.00000000	61.66338000	24.79700000
166.19999030	0.00000000	61.66338000	24.79700000
166.39999029	0.00000000	61.66338000	24.10187000
166.59999028	0.00000000	61.66338000	23.72662000
166.79999027	0.00000000	61.66338000	23.68356000
166.99999026	0.00000000	61.66338000	23.68356000
167.19999024	0.00000000	61.66338000	23.68356000
167.39999023	0.00000000	61.66338000	23.68356000
167.59999022	0.00000000	61.70644000	23.68356000
167.79999021	0.00000000	62.03863000	23.68356000
167.99999020	0.00000000	62.40772000	23.72662000
168.19999018	0.00000000	62.03863000	24.05881000
168.39999017	0.00000000	61.70644000	24.42790000
168.59999016	0.00000000	61.66338000	24.10187000
168.79999015	0.00000000	61.66338000	24.10187000
168.99999014	0.00000000	61.66338000	24.42790000
169.19999013	0.00000000	61.66338000	24.05881000
169.39999011	0.00000000	61.66338000	23.72662000
169.59999010	0.00000000	61.66338000	23.72662000
169.79999009	0.00000000	61.66338000	24.10187000
169.99999008	0.00000000	61.66338000	24.79700000
170.19999007	0.00000000	61.66338000	24.79700000
170.39999005	0.00000000	61.66338000	24.10187000
170.59999004	0.00000000	61.66338000	23.77584000
170.79999003	0.00000000	61.66338000	24.05881000
170.99999002	0.00000000	61.66338000	24.47096000
171.19999001	0.00000000	61.66338000	24.43405000
171.39998999	0.00000000	61.66338000	24.47096000
171.59998998	0.00000000	61.66338000	24.05881000
171.79998997	0.00000000	61.66338000	23.77584000
171.99998996	0.00000000	61.66338000	24.10187000
172.19998995	0.00000000	61.66338000	24.79700000
172.39998994	0.00000000	61.66338000	24.79700000
172.59998992	0.00000000	61.66338000	24.10187000
172.79998991	0.00000000	61.66338000	23.77584000
172.99998990	0.00000000	61.66338000	24.10187000
173.19998989	0.00000000	61.66338000	24.79700000
173.39998988	0.00000000	61.66338000	24.79700000
173.59998986	0.00000000	61.66338000	24.10187000
173.79998985	0.00000000	61.66338000	23.77584000
173.99998984	0.00000000	61.66338000	24.05881000
174.19998983	0.00000000	61.66338000	24.42790000
174.39998982	0.00000000	61.66338000	24.05881000
174.59998980	0.00000000	61.66338000	23.72662000
174.79998979	0.00000000	61.66338000	23.68356000
174.99998978	0.00000000	61.66338000	23.72662000
175.19998977	0.00000000	61.66338000	24.05881000
175.39998976	0.00000000	61.66338000	24.42790000
175.59998975	0.00000000	61.66338000	24.05881000
175.79998973	0.00000000	61.66338000	23.72662000
175.99998972	0.00000000	61.66338000	23.68356000
176.19998971	0.00000000	61.66338000	23.72662000
176.39998970	0.00000000	61.66338000	24.05881000
176.59998969	0.00000000	61.66338000	24.42790000
176.79998967	0.00000000	61.66338000	24.05881000
176.99998966	0.00000000	61.66338000	23.72662000
177.19998965	0.00000000	61.66338000	23.68356000
177.39998964	0.00000000	61.66338000	23.68356000
177.59998963	0.00000000	61.66338000	23.68356000
177.79998961	0.00000000	61.66338000	23.68356000
177.99998960	0.00000000	61.66338000	23.68356000
178.19998959	0.00000000	61.66338000	23.68356000
178.39998958	0.00000000	61.62032000	23.68356000
178.59998957	0.00000000	61.28814000	23.68356000
178.79998956	0.00000000	60.91904000	23.72662000
178.99998954	0.00000000	61.28814000	24.05881000
179.19998953	0.00000000	61.62032000	24.42790000
179.39998952	0.00000000	61.66338000	24.05881000
179.59998951	0.00000000	61.66338000	23.72662000
179.79998950	0.00000000	61.66338000	23.68356000
179.99998948	0.00000000	61.66338000	23.68356000
180.19998947	0.00000000	61.66338000	23.68356000
180.39998946	0.00000000	61.66338000	23.68356000
180.59998945	0.00000000	61.62032000	23.68356000
180.79998944	0.00000000	61.28814000	23.68356000
180.99998942	0.00000000	60.91904000	23.68356000
181.19998941	0.00000000	61.28814000	23.68356000
181.39998940	0.00000000	61.62032000	23.72662000
181.59998939	0.00000000	61.66338000	24.05881000
181.79998938	0.00000000	61.66338000	24.47096000
181.99998937	0.00000000	61.66338000	24.43405000
182.19998935	0.00000000	61.66338000	24.47096000
182.39998934	0.00000000	61.66338000	24.05881000
182.59998933	0.00000000	61.66338000	23.72662000
182.79998932	0.00000000	61.66338000	23.68356000
182.99998931	0.00000000	61.66338000	23.68356000
183.19998929	0.00000000	61.66338000	23.68356000
183.39998928	0.00000000	61.66338000	23.68356000
183.59998927	0.00000000	61.66338000	23.68356000
183.79998926	0.00000000	61.62032000	23.68356000
183.99998925	0.00000000	61.28814000	23.72662000
184.19998923	0.00000000	60.91904000	24.10187000
184.39998922	0.00000000	61.28814000	24.84621000
184.59998921	0.00000000	61.62032000	25.22145000
184.79998920	0.00000000	61.66338000	25.26452000
184.99998919	0.00000000	61.62032000	25.22145000
185.19998918	0.00000000	61.28814000	24.88927000
185.39998916	0.00000000	60.91904000	24.47712000
185.59998915	0.00000000	61.28814000	24.47096000
185.79998914	0.00000000	61.62032000	24.05881000
185.99998913	0.00000000	61.66338000	23.72662000
186.19998912	0.00000000	61.66338000	23.68356000
186.39998910	0.00000000	61.62032000	23.68356000
186.59998909	0.00000000	61.28814000	23.68356000
186.79998908	0.00000000	60.87598000	23.68356000
186.99998907	0.00000000	60.86983000	23.68356000
187.19998906	0.00000000	60.50073000	23.72662000
187.39998904	0.00000000	60.54995000	24.10187000
187.59998903	0.00000000	61.24508000	24.84621000
187.79998902	0.00000000	61.57111000	25.17224000
187.99998901	0.00000000	61.28814000	24.84621000
188.19998900	0.00000000	60.91904000	24.10187000
188.39998899	0.00000000	61.28814000	23.72662000
188.59998897	0.00000000	61.62032000	23.68356000
188.79998896	0.00000000	61.66338000	23.68356000
188.99998895	0.00000000	61.66338000	23.68356000
189.19998894	0.00000000	61.66338000	23.68356000
189.39998893	0.00000000	61.66338000	23.68356000
189.59998891	0.00000000	61.66338000	23.68356000
189.79998890	0.00000000	61.62032000	23.68356000
189.99998889	0.00000000	61.24508000	23.68356000
190.19998888	0.00000000	60.50073000	23.68356000
190.39998887	0.00000000	60.12549000	23.68356000
190.59998885	0.00000000	60.08243000	23.72662000
190.79998884	0.00000000	60.12549000	24.10187000
190.99998883	0.00000000	60.50073000	24.79700000
191.19998882	0.00000000	61.24508000	24.79700000
191.39998881	0.00000000	61.62032000	24.10187000
191.59998880	0.00000000	61.66338000	23.72662000
191.79998878	0.00000000	61.66338000	23.68356000
191.99998877	0.00000000	61.66338000	23.68356000
192.19998876	0.00000000	61.62032000	23.68356000
192.39998875	0.00000000	61.24508000	23.68356000
192.59998874	0.00000000	60.50073000	23.68356000
192.79998872	0.00000000	60.12549000	23.68356000
192.99998871	0.00000000	60.08243000	23.68356000
193.19998870	0.00000000	60.08243000	23.68356000
193.39998869	0.00000000	60.08243000	23.68356000
193.59998868	0.00000000	60.08243000	23.68356000
193.79998866	0.00000000	60.08243000	23.68356000
193.99998865	0.00000000	60.12549000	23.72662000
194.19998864	0.00000000	60.45767000	24.05881000
194.39998863	0.00000000	60.86983000	24.42790000
194.59998862	0.00000000	60.87598000	24.10187000
194.79998861	0.00000000	61.24508000	24.10187000
194.99998859	0.00000000	61.24508000	24.42790000
195.19998858	0.00000000	60.87598000	24.05881000
195.39998857	0.00000000	60.86983000	23.72662000
195.59998856	0.00000000	60.45767000	23.68356000
195.79998855	0.00000000	60.12549000	23.68356000
195.99998853	0.00000000	60.08243000	23.68356000
