Time	Channel A	Channel B	Channel C
(us)	(V)	(mV)	(mV)

-4.49999956	0.00000000	15.80955000	3.15575800
-4.29999957	0.00000000	15.80955000	3.15575800
-4.09999958	0.00000000	15.80955000	3.15575800
-3.89999959	0.00000000	15.80955000	3.15575800
-3.69999960	0.00000000	15.80955000	3.15575800
-3.49999962	0.00000000	15.80955000	3.15575800
-3.29999963	0.00000000	15.80955000	3.15575800
-3.09999964	0.00000000	15.80955000	3.15575800
-2.89999965	0.00000000	15.80955000	3.15575800
-2.69999966	0.00000000	15.80955000	3.15575800
-2.49999968	0.00000000	15.80955000	3.19881900
-2.29999969	0.00000000	15.80955000	3.53100400
-2.09999970	0.00000000	15.80955000	3.90009800
-1.89999971	0.00000000	15.80955000	3.53100400
-1.69999972	0.00000000	15.80955000	3.19881900
-1.49999973	0.00000000	15.80955000	3.15575800
-1.29999975	0.00000000	15.80955000	3.15575800
-1.09999976	0.00000000	15.80955000	3.15575800
-0.89999977	0.00000000	15.80955000	3.15575800
-0.69999978	0.00000000	15.80955000	3.15575800
-0.49999979	0.00000000	15.80955000	3.15575800
-0.29999981	0.31803640	15.80955000	3.15575800
-0.09999982	0.63668800	15.80955000	3.15575800
0.10000017	0.95533960	15.80955000	3.15575800
0.30000016	0.95533960	15.80955000	3.15575800
0.50000015	0.79601380	15.80955000	3.15575800
0.70000013	0.31803640	15.80955000	3.15575800
0.90000012	-0.47736220	15.76649000	3.15575800
1.10000011	-1.43331700	15.43430000	3.15575800
1.30000010	-2.38927200	15.06521000	3.15575800
1.50000009	-2.70792300	15.43430000	3.19881900
1.70000008	-2.54859700	15.76649000	3.57406500
1.90000006	-1.27399100	15.80955000	4.26919300
2.10000005	0.47736220	15.80955000	4.26919300
2.30000004	2.70792300	15.80955000	3.57406500
2.50000003	4.45989200	15.80955000	3.19881900
2.70000002	5.25652100	15.80955000	3.15575800
2.90000000	4.77854300	15.80955000	3.15575800
3.09999999	3.02657500	15.80955000	3.15575800
3.29999998	-0.15871060	15.80955000	3.15575800
3.49999997	-3.50393700	15.80955000	3.15575800
3.69999996	-6.37180100	15.80955000	3.19881900
3.89999994	-7.96444400	15.80955000	3.57406500
4.09999993	-7.48646600	15.80955000	4.31840500
4.29999992	-4.93786900	15.80955000	4.69365100
4.49999991	-1.11466500	15.80955000	4.69365100
4.69999990	3.34522600	15.80955000	4.31840500
4.89999989	7.00848900	15.80955000	3.57406500
5.09999987	9.23905000	15.80955000	3.19881900
5.29999986	9.07972400	15.80955000	3.15575800
5.49999985	6.53112700	15.80955000	3.15575800
5.69999984	2.38927200	15.80955000	3.15575800
5.89999983	-2.38927200	15.80955000	3.15575800
6.09999981	-6.69045300	15.80955000	3.15575800
6.29999980	-9.07972400	15.80955000	3.19881900
6.49999979	-9.23905000	15.80955000	3.57406500
6.69999978	-7.16781500	15.80955000	4.26919300
6.89999977	-3.50393700	15.80955000	4.26919300
7.09999975	0.95533960	15.80955000	3.57406500
7.29999974	4.77854300	15.80955000	3.19881900
7.49999973	7.32714100	15.80955000	3.15575800
7.69999972	7.64579200	15.80955000	3.15575800
7.89999971	6.21247500	15.80955000	3.15575800
8.09999970	3.34522600	15.80955000	3.15575800
8.29999968	0.15871060	15.80955000	3.15575800
8.49999967	-2.86724900	15.80955000	3.15575800
8.69999966	-4.61921700	15.80955000	3.15575800
8.89999965	-5.25652100	15.80955000	3.15575800
9.09999964	-4.30056600	15.80955000	3.15575800
9.29999962	-2.70792300	15.80955000	3.15575800
9.49999961	-0.63668800	15.80955000	3.15575800
9.69999960	1.11466500	15.80955000	3.15575800
9.89999959	2.22994600	15.80955000	3.15575800
10.09999958	2.54859700	15.80955000	3.15575800
10.29999956	2.22994600	15.80955000	3.15575800
10.49999955	1.43331700	15.80955000	3.15575800
10.69999954	0.47736220	15.80955000	3.15575800
10.89999953	-0.31803640	15.80955000	3.15575800
11.09999952	-0.79601380	15.80955000	3.15575800
11.29999951	-0.95533960	15.80955000	3.15575800
11.49999949	-0.95533960	15.80955000	3.15575800
11.69999948	-0.79601380	15.80955000	3.15575800
11.89999947	-0.47736220	15.80955000	3.15575800
12.09999946	-0.15871060	15.80955000	3.15575800
12.29999945	-0.15871060	15.80955000	3.15575800
12.49999943	-0.15871060	15.80955000	3.15575800
12.69999942	0.00000000	15.80955000	3.15575800
12.89999941	0.00000000	15.80955000	3.15575800
13.09999940	0.00000000	15.80955000	3.15575800
13.29999939	0.00000000	15.80955000	3.15575800
13.49999937	0.00000000	15.80955000	3.15575800
13.69999936	0.00000000	15.80955000	3.15575800
13.89999935	0.00000000	15.80955000	3.15575800
14.09999934	-0.15871060	15.80955000	3.15575800
14.29999933	-0.15871060	15.80955000	3.15575800
14.49999932	-0.15871060	15.80955000	3.15575800
14.69999930	-0.15871060	15.80955000	3.15575800
14.89999929	0.00000000	15.80955000	3.15575800
15.09999928	0.00000000	15.76649000	3.15575800
15.29999927	0.00000000	15.39124000	3.15575800
15.49999926	0.00000000	14.69611000	3.15575800
15.69999924	0.00000000	14.64690000	3.15575800
15.89999923	0.00000000	15.01599000	3.15575800
16.09999922	0.00000000	15.02214000	3.15575800
16.29999921	0.00000000	15.43430000	3.15575800
16.49999920	-0.15871060	15.76649000	3.15575800
16.69999919	0.00000000	15.85261000	3.15575800
16.89999917	-0.15871060	16.22785000	3.15575800
17.09999916	0.00000000	16.97219000	3.15575800
17.29999915	0.00000000	17.34744000	3.15575800
17.49999914	0.00000000	17.39050000	3.15575800
17.69999913	0.00000000	17.34744000	3.15575800
17.89999911	0.00000000	16.92298000	3.15575800
18.09999910	0.00000000	15.76649000	3.15575800
18.29999909	0.00000000	14.22859000	3.15575800
18.49999908	0.00000000	12.69070000	3.15575800
18.69999907	0.00000000	11.48499000	3.15575800
18.89999905	-0.15871060	10.73450000	3.15575800
19.09999904	0.00000000	10.41462000	3.15575800
19.29999903	0.00000000	11.62032000	3.15575800
19.49999902	0.00000000	14.32087000	3.15575800
19.69999901	0.00000000	17.80881000	3.15575800
19.89999900	0.00000000	21.71506000	3.15575800
20.09999898	0.00000000	25.11688000	3.15575800
20.29999897	0.00000000	27.01772000	3.15575800
20.49999896	0.00000000	26.18725000	3.15575800
20.69999895	0.00000000	22.65010000	3.15575800
20.89999894	0.00000000	16.41855000	3.15575800
21.09999892	0.00000000	8.32308000	3.15575800
21.29999891	0.00000000	0.68897630	3.15575800
21.49999890	0.00000000	-4.33070900	3.15575800
21.69999889	0.00000000	-5.08120100	3.15575800
21.89999888	0.00000000	-1.54404500	3.15575800
22.09999886	0.00000000	6.31766700	3.15575800
22.29999885	0.00000000	17.90108000	3.15575800
22.49999884	0.00000000	30.60408000	3.15575800
22.69999883	0.00000000	41.02485000	3.15575800
22.89999882	0.00000000	46.75196000	3.15575800
23.09999881	0.00000000	45.86614000	3.19881900
23.29999879	0.00000000	37.26624000	3.57406500
23.49999878	0.00000000	22.23179000	4.31840500
23.69999877	0.00000000	4.04773600	4.69365100
23.89999876	0.00000000	-12.85064000	4.73671200
24.09999875	0.00000000	-24.37869000	4.73671200
24.29999873	0.00000000	-26.71014000	4.64443900
24.49999872	0.00000000	-19.69119000	3.85088600
24.69999871	0.00000000	-4.51525500	1.95004900
24.89999870	0.00000000	17.10753000	0.09227362
25.09999869	0.00000000	39.40084000	-1.11343500
25.29999867	0.00000000	56.80363000	-1.48253000
25.49999866	0.00000000	65.26820000	-1.11343500
25.69999865	0.00000000	62.52460000	0.13533460
25.89999864	0.00000000	48.98499000	2.46063000
26.09999863	0.00000000	27.30684000	5.98548200
26.29999862	0.00000000	2.22687000	9.79945900
26.49999860	0.00000000	-20.47859000	13.28125000
26.69999859	0.00000000	-34.76255000	15.09596000
26.89999858	0.00000000	-37.13705000	14.30241000
27.09999857	0.00000000	-27.91584000	10.40846000
27.29999856	0.00000000	-9.31348400	4.22613100
27.49999854	0.00000000	14.60384000	-3.15575800
27.69999853	0.00000000	38.56422000	-10.45152000
27.89999852	0.00000000	56.71136000	-15.79109000
28.09999851	0.00000000	65.26820000	-17.28592000
28.29999850	0.00000000	62.56766000	-14.16708000
28.49999848	0.00000000	49.49557000	-6.78518600
28.69999847	0.00000000	29.44143000	3.66633800
28.89999846	0.00000000	7.38804100	15.23130000
29.09999845	0.00000000	-11.96481000	25.27067000
29.29999844	0.00000000	-24.71087000	31.40379000
29.49999843	0.00000000	-27.87278000	32.10507000
29.69999841	0.00000000	-21.40748000	26.24877000
29.89999840	0.00000000	-7.95398600	14.67766000
30.09999839	0.00000000	9.11048200	0.00000000
30.29999838	0.00000000	26.14419000	-14.67766000
30.49999837	0.00000000	40.14518000	-26.24877000
30.69999835	0.00000000	48.24065000	-32.01279000
30.89999834	0.00000000	49.07726000	-30.43184000
31.09999833	0.00000000	42.56274000	-21.51206000
31.29999832	0.00000000	30.97933000	-6.83439900
31.49999831	0.00000000	17.05832000	10.54380000
31.69999829	0.00000000	3.53100400	26.75935000
31.89999828	0.00000000	-6.15157400	38.33046000
32.09999827	0.00000000	-10.51919000	42.55659000
32.29999826	0.00000000	-9.40575800	38.33046000
32.49999825	0.00000000	-3.58636800	26.75935000
32.69999824	0.00000000	5.67175200	10.54380000
32.89999822	0.00000000	16.50467000	-6.87746000
33.09999821	0.00000000	26.14419000	-21.97957000
33.29999820	0.00000000	32.74483000	-32.01279000
33.49999819	0.00000000	34.70103000	-34.70718000
33.69999818	0.00000000	32.09276000	-29.31840000
33.89999816	0.00000000	26.27953000	-17.37205000
34.09999815	0.00000000	18.55315000	-1.48868100
34.29999814	0.00000000	10.45768000	15.10212000
34.49999813	0.00000000	4.31840500	28.98622000
34.69999812	0.00000000	1.57480300	36.70644000
34.89999810	0.00000000	2.68823800	36.79257000
35.09999809	0.00000000	6.87746000	29.82899000
35.29999808	0.00000000	12.64764000	17.50738000
35.49999807	0.00000000	18.46087000	2.46063000
35.69999806	0.00000000	23.06841000	-11.43578000
35.89999805	0.00000000	25.39370000	-21.46899000
36.09999803	0.00000000	24.60630000	-25.31988000
36.29999802	0.00000000	21.20448000	-21.88730000
36.49999801	0.00000000	16.18479000	-12.72761000
36.69999800	0.00000000	11.20202000	-0.41830710
36.89999799	0.00000000	7.34498000	11.52190000
37.09999797	0.00000000	5.80708600	20.39862000
37.29999796	0.00000000	6.96973400	24.24951000
37.49999795	0.00000000	10.41462000	21.97342000
37.69999794	0.00000000	15.39124000	14.72687000
37.89999793	0.00000000	19.99877000	4.73671200
38.09999791	0.00000000	23.11762000	-5.20423200
38.29999790	0.00000000	24.32333000	-12.08169000
38.49999789	0.00000000	23.53592000	-13.66265000
38.69999788	0.00000000	21.20448000	-9.84867000
38.89999787	0.00000000	17.29823000	-2.18380900
39.09999786	0.00000000	12.73991000	7.38188900
39.29999784	0.00000000	8.83366100	15.74803000
39.49999783	0.00000000	6.50221400	20.02337000
39.69999782	0.00000000	5.67175200	19.23597000
39.89999781	0.00000000	6.50221400	13.88410000
40.09999780	0.00000000	8.83366100	5.01968500
40.29999778	0.00000000	12.73991000	-4.51525500
40.49999777	0.00000000	17.29823000	-12.21703000
40.69999776	0.00000000	21.20448000	-15.61270000
40.89999775	0.00000000	23.57899000	-13.70571000
41.09999774	0.00000000	24.74163000	-6.82824800
41.29999772	0.00000000	24.27411000	2.73745100
41.49999771	0.00000000	21.62278000	11.98942000
41.69999770	0.00000000	17.76575000	18.95300000
41.89999769	0.00000000	13.89641000	21.97957000
42.09999768	0.00000000	10.37155000	20.11565000
42.29999767	0.00000000	8.04010800	13.98253000
42.49999765	0.00000000	6.87746000	5.89320800
42.69999764	0.00000000	7.25270600	-2.60211600
42.89999763	0.00000000	9.15354300	-9.47957600
43.09999762	0.00000000	11.48499000	-12.59227000
43.29999761	0.00000000	14.22859000	-11.47884000
43.49999759	0.00000000	16.92298000	-6.92052100
43.69999758	0.00000000	18.83612000	-0.37524600
43.89999757	0.00000000	19.66658000	6.13312000
44.09999756	0.00000000	19.30364000	11.18971000
44.29999755	0.00000000	18.59621000	13.56422000
44.49999753	0.00000000	17.80881000	13.61343000
44.69999752	0.00000000	17.43356000	11.65723000
44.89999751	0.00000000	17.39050000	7.80019600
45.09999750	0.00000000	17.34744000	3.24803100
45.29999749	0.00000000	16.92298000	-0.60285430
45.49999748	0.00000000	15.71727000	-2.60211600
45.69999746	0.00000000	13.76107000	-3.02042300
45.89999745	0.00000000	11.06668000	-2.27608300
46.09999744	0.00000000	8.37229300	-0.33218500
46.29999743	0.00000000	6.45915300	1.95004900
46.49999742	0.00000000	5.76402500	4.31840500
46.69999740	0.00000000	7.34498000	6.22539300
46.89999739	0.00000000	11.24508000	7.42495000
47.09999738	0.00000000	16.69537000	7.75713500
47.29999737	0.00000000	23.16068000	6.96358300
47.49999736	0.00000000	28.18036000	4.68750000
47.69999734	0.00000000	30.09965000	1.99311000
47.89999733	0.00000000	29.29380000	-0.33218500
48.09999732	0.00000000	24.56324000	-2.22687000
48.29999731	0.00000000	16.92298000	-2.64517700
48.49999730	0.00000000	8.41535400	-1.85777500
48.69999729	0.00000000	1.10728300	-0.27682080
48.89999727	0.00000000	-3.12500000	2.82972400
49.09999726	0.00000000	-3.12500000	6.22539300
49.29999725	0.00000000	1.15649600	8.96284400
49.49999724	0.00000000	8.87672100	10.49459000
49.69999723	0.00000000	18.50394000	10.45152000
49.89999721	0.00000000	27.34990000	8.54453700
50.09999720	0.00000000	33.16929000	5.06274600
50.29999719	0.00000000	34.65797000	1.20570900
50.49999718	0.00000000	31.20694000	-2.64517700
50.69999717	0.00000000	23.48671000	-5.29650500
50.89999715	0.00000000	13.89641000	-5.71481200
51.09999714	0.00000000	4.64443900	-4.18307100
51.29999713	0.00000000	-1.45177200	-1.07037400
51.49999712	0.00000000	-2.70669300	3.15575800
51.69999711	0.00000000	0.73203740	7.38188900
51.89999710	0.00000000	7.29576700	10.49459000
52.09999708	0.00000000	15.76649000	12.03248000
52.29999707	0.00000000	23.81275000	11.61417000
52.49999706	0.00000000	28.79552000	8.96284400
52.69999705	0.00000000	29.62598000	5.11195900
52.89999704	0.00000000	26.18725000	1.24877000
53.09999702	0.00000000	20.04183000	-2.22687000
53.29999701	0.00000000	12.73991000	-4.14000900
53.49999700	0.00000000	6.22539300	-4.18307100
53.69999699	0.00000000	2.73745100	-2.64517700
53.89999698	0.00000000	2.68823800	0.04306102
54.09999696	0.00000000	5.80708600	3.11269700
54.29999695	0.00000000	11.57726000	5.80093500
54.49999694	0.00000000	18.41781000	7.33882900
54.69999693	0.00000000	23.81275000	7.33882900
54.89999692	0.00000000	26.14419000	5.85014700
55.09999691	0.00000000	25.39370000	3.61712600
55.29999689	0.00000000	21.53666000	2.04232300
55.49999688	0.00000000	15.80955000	1.29183100
55.69999687	0.00000000	10.03937000	1.29798200
55.89999686	0.00000000	5.80708600	2.82972400
56.09999685	0.00000000	4.22613100	4.68750000
56.29999683	0.00000000	5.33956700	6.22539300
56.49999682	0.00000000	8.45841400	6.92052100
56.69999681	0.00000000	13.06594000	5.75787400
56.89999680	0.00000000	18.04257000	3.11269700
57.09999679	0.00000000	21.53666000	0.04306102
57.29999677	0.00000000	23.11762000	-2.64517700
57.49999676	0.00000000	22.69316000	-4.18307100
57.69999675	0.00000000	20.04183000	-4.14000900
57.89999674	0.00000000	16.22785000	-2.14074800
58.09999673	0.00000000	12.73991000	2.08538400
58.29999672	0.00000000	10.03937000	7.42495000
58.49999670	0.00000000	8.87672100	12.03248000
58.69999669	0.00000000	9.57800100	14.67766000
58.89999668	0.00000000	11.10974000	14.30241000
59.09999667	0.00000000	13.06594000	10.82677000
59.29999666	0.00000000	15.39124000	5.43184000
59.49999664	0.00000000	17.25517000	-1.11343500
59.69999663	0.00000000	18.08563000	-6.82824800
59.89999662	0.00000000	17.72268000	-9.94094400
60.09999661	0.00000000	16.97219000	-9.94094400
60.29999660	0.00000000	15.76649000	-6.82824800
60.49999658	0.00000000	14.27165000	-1.02116100
60.69999657	0.00000000	13.15822000	6.26845500
60.89999656	0.00000000	13.11516000	13.18898000
61.09999655	0.00000000	13.85334000	17.79650000
61.29999654	0.00000000	14.60384000	18.95300000
61.49999653	0.00000000	15.39124000	16.21555000
61.69999651	0.00000000	15.76649000	10.07628000
61.89999650	0.00000000	15.76649000	1.99311000
62.09999649	0.00000000	15.34203000	-5.67175200
62.29999648	0.00000000	14.22859000	-11.10359000
62.49999647	0.00000000	13.11516000	-13.05364000
62.69999645	0.00000000	12.69070000	-11.52190000
62.89999644	0.00000000	12.69070000	-6.87746000
63.09999643	0.00000000	13.11516000	0.09227362
63.29999642	0.00000000	14.27165000	7.75713500
63.49999641	0.00000000	15.76649000	14.30241000
63.69999639	0.00000000	16.92298000	17.79035000
63.89999638	0.00000000	17.29823000	17.83957000
64.09999637	0.00000000	16.92298000	14.76993000
64.29999636	0.00000000	15.80955000	9.33809000
64.49999635	0.00000000	14.64690000	2.78051200
64.69999634	0.00000000	13.85334000	-3.76476400
64.89999632	0.00000000	13.06594000	-8.36614100
65.09999631	0.00000000	12.69070000	-9.99015700
65.29999630	0.00000000	12.69070000	-8.87057000
65.49999629	0.00000000	13.11516000	-5.80093500
65.69999628	0.00000000	14.22859000	-1.53174200
65.89999626	0.00000000	15.34203000	3.11269700
66.09999625	0.00000000	15.76649000	7.38188900
66.29999624	0.00000000	15.76649000	10.49459000
66.49999623	0.00000000	15.34203000	12.07554000
66.69999622	0.00000000	14.18553000	12.11860000
66.89999620	0.00000000	12.69070000	10.96211000
67.09999619	0.00000000	11.57726000	8.96284400
67.29999618	0.00000000	11.57726000	5.85014700
67.49999617	0.00000000	12.73991000	2.04232300
67.69999616	0.00000000	14.69611000	-1.11343500
67.89999615	0.00000000	17.34744000	-3.48179100
68.09999613	0.00000000	19.62352000	-5.43184000
68.29999612	0.00000000	20.37401000	-6.13312000
68.49999611	0.00000000	19.62352000	-5.38262700
68.69999610	0.00000000	17.25517000	-3.02042300
68.89999609	0.00000000	13.81028000	0.46751960
69.09999607	0.00000000	9.95324800	4.73671200
69.29999606	0.00000000	6.87746000	9.00590400
69.49999605	0.00000000	5.33956700	12.45079000
69.69999604	0.00000000	5.71481200	14.35162000
69.89999603	0.00000000	8.08316900	13.60728000
70.09999601	0.00000000	11.95251000	10.91289000
70.29999600	0.00000000	17.01525000	7.00664300
70.49999599	0.00000000	21.95497000	1.95004900
70.69999598	0.00000000	25.43676000	-3.02042300
70.89999597	0.00000000	26.18725000	-6.87746000
71.09999596	0.00000000	24.27411000	-8.40920300
71.29999594	0.00000000	19.99877000	-7.29576700
71.49999593	0.00000000	14.22859000	-4.22613100
71.69999592	0.00000000	8.41535400	0.04306102
71.89999591	0.00000000	3.80782500	4.69365100
72.09999590	0.00000000	1.48253000	8.91978400
72.29999588	0.00000000	2.26993100	11.61417000
72.49999587	0.00000000	5.71481200	11.98327000
72.69999586	0.00000000	11.10974000	10.11934000
72.89999585	0.00000000	16.92298000	6.68676100
73.09999584	0.00000000	21.95497000	3.24803100
73.29999582	0.00000000	25.39370000	0.51058070
73.49999581	0.00000000	25.81201000	-1.02116100
73.69999580	0.00000000	23.57899000	-1.06422200
73.89999579	0.00000000	20.08489000	0.04306102
74.09999578	0.00000000	15.76649000	1.53174200
74.29999577	0.00000000	11.15896000	2.68823800
74.49999575	0.00000000	7.29576700	3.11269700
74.69999574	0.00000000	5.38877900	3.11269700
74.89999573	0.00000000	5.71481200	2.68823800
75.09999572	0.00000000	8.04010800	1.57480300
75.29999571	0.00000000	11.48499000	0.51058070
75.49999569	0.00000000	15.34203000	0.51058070
75.69999568	0.00000000	18.41781000	1.66707700
75.89999567	0.00000000	19.99877000	3.61712600
76.09999566	0.00000000	20.04183000	6.31151500
76.29999565	0.00000000	18.87918000	8.91978400
76.49999563	0.00000000	17.01525000	10.03322000
76.69999562	0.00000000	15.06521000	8.91978400
76.89999561	0.00000000	13.89641000	6.22539300
77.09999560	0.00000000	13.11516000	2.69439000
77.29999559	0.00000000	13.11516000	-1.53174200
77.49999558	0.00000000	13.81028000	-5.33956700
77.69999556	0.00000000	14.18553000	-7.24655500
77.89999555	0.00000000	14.18553000	-6.87746000
78.09999554	0.00000000	13.81028000	-4.14000900
78.29999553	0.00000000	13.02288000	0.46136810
78.49999552	0.00000000	12.31545000	5.85014700
78.69999550	0.00000000	11.90330000	10.49459000
78.89999549	0.00000000	12.36466000	13.56422000
79.09999548	0.00000000	13.48425000	14.35162000
79.29999547	0.00000000	15.43430000	12.40773000
79.49999546	0.00000000	17.29823000	8.58759800
79.69999544	0.00000000	18.50394000	3.53100400
79.89999543	0.00000000	18.87918000	-1.39640700
80.09999542	0.00000000	18.46087000	-4.96432100
80.29999541	0.00000000	16.87992000	-6.50836600
80.49999540	0.00000000	14.22859000	-6.54527500
80.69999539	0.00000000	11.53420000	-4.60137700
80.89999537	0.00000000	9.62106200	-1.53174200
81.09999536	0.00000000	8.83366100	1.95004900
81.29999535	0.00000000	9.62106200	5.47490100
81.49999534	0.00000000	11.53420000	8.17544300
81.69999533	0.00000000	14.22859000	10.16855000
81.89999531	0.00000000	16.92298000	10.91289000
82.09999530	0.00000000	18.83612000	10.53765000
82.29999529	0.00000000	19.62352000	8.96284400
82.49999528	0.00000000	18.87918000	6.26845500
82.69999527	0.00000000	17.34744000	3.19881900
82.89999525	0.00000000	15.39124000	0.41830710
83.09999524	0.00000000	13.11516000	-1.90698800
83.29999523	0.00000000	11.57726000	-3.85088600
83.49999522	0.00000000	11.10974000	-4.60137700
83.69999521	0.00000000	11.10974000	-4.22613100
83.89999520	0.00000000	11.53420000	-2.60211600
84.09999518	0.00000000	12.64764000	0.46751960
84.29999517	0.00000000	13.81028000	4.31840500
84.49999516	0.00000000	14.60384000	7.80019600
84.69999515	0.00000000	15.34203000	10.53765000
84.89999514	0.00000000	15.39124000	12.03248000
85.09999512	0.00000000	15.02214000	11.65723000
85.29999511	0.00000000	15.05905000	9.33809000
85.49999510	0.00000000	15.02214000	5.85014700
85.69999509	0.00000000	15.43430000	1.57480300
85.89999508	0.00000000	15.76649000	-2.64517700
86.09999506	0.00000000	15.80955000	-5.71481200
86.29999505	0.00000000	15.71727000	-6.87130900
86.49999504	0.00000000	14.97293000	-5.71481200
86.69999503	0.00000000	13.44119000	-2.60211600
86.89999502	0.00000000	12.31545000	1.99311000
87.09999501	0.00000000	11.53420000	7.00664300
87.29999499	0.00000000	11.53420000	10.82677000
87.49999498	0.00000000	12.27239000	12.77067000
87.69999497	0.00000000	13.11516000	11.98942000
87.89999496	0.00000000	14.64690000	8.96284400
88.09999495	0.00000000	16.50467000	4.69365100
88.29999493	0.00000000	17.29823000	0.04306102
88.49999492	0.00000000	17.34744000	-4.14000900
88.69999491	0.00000000	16.92298000	-6.45300100
88.89999490	0.00000000	15.76649000	-6.04699800
89.09999489	0.00000000	14.27165000	-3.38951800
89.29999487	0.00000000	13.06594000	1.24877000
89.49999486	0.00000000	12.27239000	6.21924200
89.69999485	0.00000000	11.53420000	10.45152000
89.89999484	0.00000000	11.57726000	12.72761000
90.09999483	0.00000000	12.64764000	11.98942000
90.29999482	0.00000000	13.81028000	8.96284400
90.49999480	0.00000000	14.60384000	4.69365100
90.69999479	0.00000000	15.39124000	0.04306102
90.89999478	0.00000000	15.76649000	-4.14000900
91.09999477	0.00000000	15.76649000	-6.40994000
91.29999476	0.00000000	15.39124000	-5.67175200
91.49999474	0.00000000	14.69611000	-2.60211600
91.69999473	0.00000000	14.64690000	1.99311000
91.89999472	0.00000000	14.97293000	7.00664300
92.09999471	0.00000000	14.64690000	10.82677000
92.29999470	0.00000000	14.64690000	12.72761000
92.49999468	0.00000000	14.97293000	11.56496000
92.69999467	0.00000000	14.56078000	7.80019600
92.89999466	0.00000000	13.81028000	3.15575800
93.09999465	0.00000000	12.64764000	-1.48868100
93.29999464	0.00000000	11.53420000	-5.29650500
93.49999463	0.00000000	11.10974000	-6.82824800
93.69999461	0.00000000	11.10974000	-5.67175200
93.89999460	0.00000000	11.57726000	-2.22687000
94.09999459	0.00000000	13.11516000	2.73745100
94.29999458	0.00000000	15.39124000	7.29576700
94.49999457	0.00000000	17.34744000	10.03322000
94.69999455	0.00000000	18.87918000	10.45152000
94.89999454	0.00000000	19.62352000	8.91978400
95.09999453	0.00000000	18.83612000	5.85014700
95.29999452	0.00000000	16.87992000	1.99311000
95.49999451	0.00000000	13.81028000	-1.44562000
95.69999449	0.00000000	10.37155000	-3.76476400
95.89999448	0.00000000	8.04010800	-4.14000900
96.09999447	0.00000000	6.87746000	-2.64517700
96.29999446	0.00000000	7.29576700	0.04306102
96.49999445	0.00000000	9.57800100	3.11269700
96.69999444	0.00000000	12.69070000	5.80093500
96.89999442	0.00000000	16.22785000	7.33882900
97.09999441	0.00000000	20.04183000	7.38188900
97.29999440	0.00000000	22.69316000	6.22539300
97.49999439	0.00000000	23.11762000	4.31840500
97.69999438	0.00000000	21.62278000	1.99311000
97.89999436	0.00000000	18.87918000	0.13533460
98.09999435	0.00000000	15.39124000	-0.69512790
98.29999434	0.00000000	11.48499000	-0.32603340
98.49999433	0.00000000	8.04010800	0.37524600
98.69999432	0.00000000	5.71481200	1.19955700
98.89999430	0.00000000	5.33956700	1.99311000
99.09999429	0.00000000	6.87746000	3.15575800
99.29999428	0.00000000	9.95324800	4.26919300
99.49999427	0.00000000	13.81028000	4.69365100
99.69999426	0.00000000	17.29823000	4.73671200
99.89999425	0.00000000	20.04183000	4.73671200
100.09999423	0.00000000	21.57972000	4.73671200
100.29999422	0.00000000	21.57972000	4.73671200
100.49999421	0.00000000	20.04183000	4.73671200
100.69999420	0.00000000	17.34744000	4.69365100
100.89999419	0.00000000	14.27165000	4.22613100
101.09999417	0.00000000	11.53420000	2.69439000
101.29999416	0.00000000	9.57800100	0.46751960
101.49999415	0.00000000	8.41535400	-1.06422200
101.69999414	0.00000000	8.41535400	-1.48253000
101.89999413	0.00000000	9.57800100	-1.11343500
102.09999411	0.00000000	11.48499000	0.09227362
102.29999410	0.00000000	13.81028000	2.04232300
102.49999409	0.00000000	15.76649000	4.73671200
102.69999408	0.00000000	17.34744000	7.38188900
102.89999407	0.00000000	18.46087000	8.96284400
103.09999406	0.00000000	18.50394000	9.33809000
103.29999404	0.00000000	17.72268000	8.54453700
103.49999403	0.00000000	16.55389000	6.17618100
103.69999402	0.00000000	14.60384000	2.78051200
103.89999401	0.00000000	12.69070000	-0.69512790
104.09999400	0.00000000	11.10974000	-2.97736200
104.29999398	0.00000000	9.99630800	-3.80782500
104.49999397	0.00000000	9.99630800	-3.02042300
104.69999396	0.00000000	11.10974000	-1.11343500
104.89999395	0.00000000	12.64764000	1.62401600
105.09999394	0.00000000	14.22859000	4.64443900
105.29999392	0.00000000	15.76649000	6.96358300
105.49999391	0.00000000	16.87992000	7.75713500
105.69999390	0.00000000	16.87992000	7.38188900
105.89999389	0.00000000	15.80955000	5.80093500
106.09999388	0.00000000	14.64690000	3.15575800
106.29999387	0.00000000	13.81028000	0.51058070
106.49999385	0.00000000	12.64764000	-1.06422200
106.69999384	0.00000000	11.57726000	-1.48253000
106.89999383	0.00000000	11.57726000	-1.06422200
107.09999382	0.00000000	12.64764000	0.46751960
107.29999381	0.00000000	13.81028000	2.73745100
107.49999379	0.00000000	14.60384000	4.64443900
107.69999378	0.00000000	15.39124000	5.85014700
107.89999377	0.00000000	15.71727000	6.17618100
108.09999376	0.00000000	15.34203000	5.43184000
108.29999375	0.00000000	14.22859000	3.53100400
108.49999374	0.00000000	13.06594000	1.66707700
108.69999372	0.00000000	12.27239000	0.46136810
108.89999371	0.00000000	11.48499000	0.04306102
109.09999370	0.00000000	11.15896000	0.04306102
109.29999369	0.00000000	11.53420000	0.46136810
109.49999368	0.00000000	12.69070000	1.66707700
109.69999366	0.00000000	14.18553000	3.53100400
109.89999365	0.00000000	15.34203000	5.43184000
110.09999364	0.00000000	15.76649000	6.17618100
110.29999363	0.00000000	15.76649000	5.85014700
110.49999362	0.00000000	15.34203000	4.68750000
110.69999360	0.00000000	14.22859000	3.15575800
110.89999359	0.00000000	13.11516000	1.62401600
111.09999358	0.00000000	12.69070000	0.46136810
111.29999357	0.00000000	12.60458000	0.04306102
111.49999356	0.00000000	12.27239000	0.00000000
111.69999355	0.00000000	11.95251000	0.04306102
111.89999353	0.00000000	12.69070000	0.46136810
112.09999352	0.00000000	13.76107000	1.57480300
112.29999351	0.00000000	14.22859000	2.73745100
112.49999350	0.00000000	14.60384000	3.53100400
112.69999349	0.00000000	14.97293000	4.31840500
112.89999347	0.00000000	14.60384000	4.69365100
113.09999346	0.00000000	14.27165000	4.69365100
113.29999345	0.00000000	14.22859000	4.31840500
113.49999344	0.00000000	14.18553000	3.57406500
113.69999343	0.00000000	13.81028000	3.15575800
113.89999341	0.00000000	13.06594000	2.73745100
114.09999340	0.00000000	12.69070000	1.99311000
114.29999339	0.00000000	12.64764000	1.61786400
114.49999338	0.00000000	12.69070000	1.57480300
114.69999337	0.00000000	13.06594000	1.57480300
114.89999336	0.00000000	13.81028000	1.57480300
115.09999334	0.00000000	14.18553000	1.57480300
115.29999333	0.00000000	14.22859000	1.57480300
115.49999332	0.00000000	14.22859000	1.61786400
115.69999331	0.00000000	14.22859000	2.04232300
115.89999330	0.00000000	14.22859000	3.15575800
116.09999328	0.00000000	14.18553000	4.26919300
116.29999327	0.00000000	13.81028000	4.69365100
116.49999326	0.00000000	13.06594000	4.73671200
116.69999325	0.00000000	12.69070000	4.69365100
116.89999324	0.00000000	12.64764000	4.31840500
117.09999322	0.00000000	12.69070000	3.53100400
117.29999321	0.00000000	13.06594000	2.73745100
117.49999320	0.00000000	13.85334000	1.57480300
117.69999319	0.00000000	14.60384000	0.46136810
117.89999318	0.00000000	15.34203000	0.04306102
118.09999317	0.00000000	15.34203000	0.04306102
118.29999315	0.00000000	14.64690000	0.46136810
118.49999314	0.00000000	14.22859000	1.62401600
118.69999313	0.00000000	13.76107000	3.11269700
118.89999312	0.00000000	12.64764000	4.26919300
119.09999311	0.00000000	11.53420000	4.69365100
119.29999309	0.00000000	11.10974000	4.73671200
119.49999308	0.00000000	11.10974000	4.69365100
119.69999307	0.00000000	11.53420000	4.31840500
119.89999306	0.00000000	12.69070000	3.53100400
120.09999305	0.00000000	14.22859000	2.78051200
120.29999303	0.00000000	15.76649000	1.99311000
120.49999302	0.00000000	16.87992000	1.61786400
120.69999301	0.00000000	16.92298000	1.57480300
120.89999300	0.00000000	16.22785000	1.57480300
121.09999299	0.00000000	15.76649000	1.57480300
121.29999298	0.00000000	14.92372000	1.57480300
121.49999296	0.00000000	13.06594000	1.57480300
121.69999295	0.00000000	11.57726000	1.61786400
121.89999294	0.00000000	11.10974000	1.99311000
122.09999293	0.00000000	11.06668000	2.73745100
122.29999292	0.00000000	11.10974000	3.11269700
122.49999290	0.00000000	11.53420000	3.15575800
122.69999289	0.00000000	12.69070000	3.19881900
122.89999288	0.00000000	14.18553000	3.53100400
123.09999287	0.00000000	15.34203000	3.90009800
123.29999286	0.00000000	15.76649000	3.53100400
123.49999284	0.00000000	15.80955000	3.15575800
123.69999283	0.00000000	15.76649000	2.73745100
123.89999282	0.00000000	15.39124000	1.99311000
124.09999281	0.00000000	14.60384000	1.61786400
124.29999280	0.00000000	13.85334000	1.57480300
124.49999279	0.00000000	13.02288000	1.57480300
124.69999277	0.00000000	12.27239000	1.61786400
124.89999276	0.00000000	11.48499000	1.99311000
125.09999275	0.00000000	11.10974000	2.73745100
125.29999274	0.00000000	11.10974000	3.11269700
125.49999273	0.00000000	11.53420000	3.15575800
125.69999271	0.00000000	12.64764000	3.15575800
125.89999270	0.00000000	13.81028000	3.15575800
126.09999269	0.00000000	14.60384000	3.15575800
126.29999268	0.00000000	15.43430000	3.15575800
126.49999267	0.00000000	16.14173000	3.11269700
126.69999265	0.00000000	16.50467000	2.73745100
126.89999264	0.00000000	15.71727000	1.99311000
127.09999263	0.00000000	14.27165000	1.61786400
127.29999262	0.00000000	13.06594000	1.57480300
127.49999261	0.00000000	12.27239000	1.57480300
127.69999260	0.00000000	11.48499000	1.61786400
127.89999258	0.00000000	11.15896000	1.99311000
128.09999257	0.00000000	11.48499000	2.73745100
128.29999256	0.00000000	12.27239000	3.11269700
128.49999255	0.00000000	13.06594000	3.15575800
128.69999254	0.00000000	14.22859000	3.15575800
128.89999252	0.00000000	15.34203000	3.15575800
129.09999251	0.00000000	15.76649000	3.15575800
129.29999250	0.00000000	15.76649000	3.15575800
129.49999249	0.00000000	15.34203000	3.11269700
129.69999248	0.00000000	14.18553000	2.73745100
129.89999246	0.00000000	12.69070000	1.99311000
130.09999245	0.00000000	11.53420000	1.66707700
130.29999244	0.00000000	11.15896000	1.99311000
130.49999243	0.00000000	11.48499000	2.73745100
130.69999242	0.00000000	12.27239000	3.11269700
130.89999241	0.00000000	13.02288000	3.15575800
131.09999239	0.00000000	13.81028000	3.15575800
131.29999238	0.00000000	14.22859000	3.15575800
131.49999237	0.00000000	14.60384000	3.11269700
131.69999236	0.00000000	14.97293000	2.73745100
131.89999235	0.00000000	14.56078000	1.99311000
132.09999233	0.00000000	13.85334000	1.61786400
132.29999232	0.00000000	13.06594000	1.57480300
132.49999231	0.00000000	12.69070000	1.57480300
132.69999230	0.00000000	12.64764000	1.61786400
132.89999229	0.00000000	12.64764000	1.99311000
133.09999227	0.00000000	12.64764000	2.73745100
133.29999226	0.00000000	12.64764000	3.11269700
133.49999225	0.00000000	12.64764000	3.19881900
133.69999224	0.00000000	12.69070000	3.53100400
133.89999223	0.00000000	13.02288000	3.90009800
134.09999222	0.00000000	13.39198000	3.48794300
134.29999220	0.00000000	13.02288000	2.78051200
134.49999219	0.00000000	12.73991000	1.95004900
134.69999218	0.00000000	13.06594000	1.19955700
134.89999217	0.00000000	13.81028000	0.41830710
135.09999216	0.00000000	14.18553000	0.09227362
135.29999214	0.00000000	14.22859000	0.41830710
135.49999213	0.00000000	14.22859000	1.19955700
135.69999212	0.00000000	14.18553000	1.95004900
135.89999211	0.00000000	13.81028000	2.73745100
136.09999210	0.00000000	13.06594000	3.15575800
136.29999208	0.00000000	12.64764000	3.53100400
136.49999207	0.00000000	12.27239000	3.90009800
136.69999206	0.00000000	11.90330000	3.53100400
136.89999205	0.00000000	12.27239000	3.15575800
137.09999204	0.00000000	12.64764000	2.73745100
137.29999203	0.00000000	13.06594000	1.99311000
137.49999201	0.00000000	13.81028000	1.57480300
137.69999200	0.00000000	14.18553000	1.19955700
137.89999199	0.00000000	14.22859000	0.83661410
138.09999198	0.00000000	14.22859000	1.19955700
138.29999197	0.00000000	14.18553000	1.53174200
138.49999195	0.00000000	13.81028000	1.61786400
138.69999194	0.00000000	13.02288000	1.99311000
138.89999193	0.00000000	12.31545000	2.73745100
139.09999192	0.00000000	11.90330000	3.15575800
139.29999191	0.00000000	12.27239000	3.57406500
139.49999189	0.00000000	12.64764000	4.31840500
139.69999188	0.00000000	13.06594000	4.64443900
139.89999187	0.00000000	13.81028000	4.31840500
140.09999186	0.00000000	14.18553000	3.53100400
140.29999185	0.00000000	14.22859000	2.78051200
140.49999184	0.00000000	14.22859000	1.99311000
140.69999182	0.00000000	14.18553000	1.57480300
140.89999181	0.00000000	13.81028000	1.15649600
141.09999180	0.00000000	13.06594000	0.46136810
141.29999179	0.00000000	12.69070000	0.46136810
141.49999178	0.00000000	12.64764000	1.19955700
141.69999176	0.00000000	12.64764000	1.95004900
141.89999175	0.00000000	12.69070000	2.78051200
142.09999174	0.00000000	13.06594000	3.53100400
142.29999173	0.00000000	13.81028000	4.31840500
142.49999172	0.00000000	14.18553000	4.64443900
142.69999170	0.00000000	14.18553000	4.31840500
142.89999169	0.00000000	13.81028000	3.53100400
143.09999168	0.00000000	13.06594000	2.78051200
143.29999167	0.00000000	12.69070000	1.99311000
143.49999166	0.00000000	12.60458000	1.57480300
143.69999165	0.00000000	12.31545000	1.19955700
143.89999163	0.00000000	12.27854000	0.83661410
144.09999162	0.00000000	13.05979000	1.24877000
144.29999161	0.00000000	13.39813000	1.95004900
144.49999160	0.00000000	13.85334000	2.73745100
144.69999159	0.00000000	14.18553000	3.11269700
144.89999157	0.00000000	14.18553000	3.15575800
145.09999156	0.00000000	13.81028000	3.15575800
145.29999155	0.00000000	13.06594000	3.15575800
145.49999154	0.00000000	12.69070000	3.11269700
145.69999153	0.00000000	12.64764000	2.73745100
145.89999151	0.00000000	12.64764000	1.99311000
146.09999150	0.00000000	12.64764000	1.61786400
146.29999149	0.00000000	12.64764000	1.57480300
146.49999148	0.00000000	12.69070000	1.57480300
146.69999147	0.00000000	13.06594000	1.57480300
146.89999146	0.00000000	13.81028000	1.61786400
147.09999144	0.00000000	14.18553000	1.99311000
147.29999143	0.00000000	14.22859000	2.73745100
147.49999142	0.00000000	14.18553000	3.11269700
147.69999141	0.00000000	13.81028000	3.15575800
147.89999140	0.00000000	13.06594000	3.15575800
148.09999138	0.00000000	12.69070000	3.15575800
148.29999137	0.00000000	12.64764000	3.11269700
148.49999136	0.00000000	12.64764000	2.73745100
148.69999135	0.00000000	12.64764000	1.99311000
148.89999134	0.00000000	12.64764000	1.61786400
149.09999132	0.00000000	12.64764000	1.57480300
149.29999131	0.00000000	12.69070000	1.57480300
149.49999130	0.00000000	13.06594000	1.61786400
149.69999129	0.00000000	13.81028000	1.99311000
149.89999128	0.00000000	14.18553000	2.73745100
150.09999127	0.00000000	14.18553000	3.11269700
150.29999125	0.00000000	13.81028000	3.15575800
150.49999124	0.00000000	13.06594000	3.15575800
150.69999123	0.00000000	12.69070000	3.15575800
150.89999122	0.00000000	12.64764000	3.15575800
151.09999121	0.00000000	12.64764000	3.11269700
151.29999119	0.00000000	12.64764000	2.73745100
151.49999118	0.00000000	12.64764000	1.99311000
151.69999117	0.00000000	12.64764000	1.61786400
151.89999116	0.00000000	12.64764000	1.57480300
152.09999115	0.00000000	12.69070000	1.57480300
152.29999113	0.00000000	13.06594000	1.57480300
152.49999112	0.00000000	13.76107000	1.61786400
152.69999111	0.00000000	13.81028000	1.99311000
152.89999110	0.00000000	13.44119000	2.73745100
153.09999109	0.00000000	13.43504000	3.11269700
153.29999108	0.00000000	13.02288000	3.15575800
153.49999106	0.00000000	12.69070000	3.15575800
153.69999105	0.00000000	12.64764000	3.15575800
153.89999104	0.00000000	12.60458000	3.15575800
154.09999103	0.00000000	12.27239000	3.15575800
154.29999102	0.00000000	11.90330000	3.15575800
154.49999100	0.00000000	12.27239000	3.11269700
154.69999099	0.00000000	12.60458000	2.73745100
154.89999098	0.00000000	12.69070000	1.99311000
155.09999097	0.00000000	13.06594000	1.61786400
155.29999096	0.00000000	13.81028000	1.57480300
155.49999094	0.00000000	14.18553000	1.57480300
155.69999093	0.00000000	14.22859000	1.61786400
155.89999092	0.00000000	14.18553000	1.99311000
156.09999091	0.00000000	13.81028000	2.73745100
156.29999090	0.00000000	13.06594000	3.11269700
156.49999089	0.00000000	12.69070000	3.15575800
156.69999087	0.00000000	12.60458000	3.15575800
156.89999086	0.00000000	12.27239000	3.15575800
157.09999085	0.00000000	11.86024000	3.15575800
157.29999084	0.00000000	11.89715000	3.15575800
157.49999083	0.00000000	11.86024000	3.11269700
157.69999081	0.00000000	12.31545000	2.73745100
157.89999080	0.00000000	12.97982000	1.99311000
158.09999079	0.00000000	13.43504000	1.61786400
158.29999078	0.00000000	13.44119000	1.57480300
158.49999077	0.00000000	13.85334000	1.57480300
158.69999075	0.00000000	14.18553000	1.57480300
158.89999074	0.00000000	14.18553000	1.61786400
159.09999073	0.00000000	13.81028000	1.99311000
159.29999072	0.00000000	13.06594000	2.73745100
159.49999071	0.00000000	12.69070000	3.11269700
159.69999070	0.00000000	12.64764000	3.15575800
159.89999068	0.00000000	12.64764000	3.15575800
160.09999067	0.00000000	12.60458000	3.15575800
160.29999066	0.00000000	12.27239000	3.11269700
160.49999065	0.00000000	11.90330000	2.73745100
160.69999064	0.00000000	12.27239000	1.99311000
160.89999062	0.00000000	12.60458000	1.61786400
161.09999061	0.00000000	12.64764000	1.57480300
161.29999060	0.00000000	12.64764000	1.57480300
161.49999059	0.00000000	12.64764000	1.57480300
161.69999058	0.00000000	12.64764000	1.61786400
161.89999056	0.00000000	12.69070000	1.99311000
162.09999055	0.00000000	13.02288000	2.73745100
162.29999054	0.00000000	13.39198000	3.11269700
162.49999053	0.00000000	13.02288000	3.15575800
162.69999052	0.00000000	12.69070000	3.15575800
162.89999051	0.00000000	12.64764000	3.15575800
163.09999049	0.00000000	12.64764000	3.15575800
163.29999048	0.00000000	12.60458000	3.11269700
163.49999047	0.00000000	12.27239000	2.73745100
163.69999046	0.00000000	11.90330000	1.99311000
163.89999045	0.00000000	12.27239000	1.61786400
164.09999043	0.00000000	12.60458000	1.57480300
164.29999042	0.00000000	12.64764000	1.57480300
164.49999041	0.00000000	12.69070000	1.57480300
164.69999040	0.00000000	13.06594000	1.57480300
164.89999039	0.00000000	13.81028000	1.57480300
165.09999037	0.00000000	14.13632000	1.57480300
165.29999036	0.00000000	13.81028000	1.57480300
165.49999035	0.00000000	13.06594000	1.61786400
165.69999034	0.00000000	12.69070000	1.99311000
165.89999033	0.00000000	12.64764000	2.68823800
166.09999032	0.00000000	12.64764000	2.73745100
166.29999030	0.00000000	12.64764000	2.41141700
166.49999029	0.00000000	12.64764000	2.73745100
166.69999028	0.00000000	12.64764000	2.68823800
166.89999027	0.00000000	12.64764000	1.99311000
167.09999026	0.00000000	12.64764000	1.61786400
167.29999024	0.00000000	12.64764000	1.57480300
167.49999023	0.00000000	12.64764000	1.57480300
167.69999022	0.00000000	12.64764000	1.57480300
167.89999021	0.00000000	12.64764000	1.57480300
168.09999020	0.00000000	12.64764000	1.57480300
168.29999018	0.00000000	12.64764000	1.57480300
168.49999017	0.00000000	12.64764000	1.57480300
168.69999016	0.00000000	12.64764000	1.57480300
168.89999015	0.00000000	12.64764000	1.61786400
169.09999014	0.00000000	12.64764000	1.99311000
169.29999013	0.00000000	12.64764000	2.73745100
169.49999011	0.00000000	12.64764000	3.11269700
169.69999010	0.00000000	12.64764000	3.11269700
169.89999009	0.00000000	12.64764000	2.73745100
170.09999008	0.00000000	12.64764000	1.99311000
170.29999007	0.00000000	12.64764000	1.61786400
170.49999005	0.00000000	12.64764000	1.57480300
170.69999004	0.00000000	12.64764000	1.57480300
170.89999003	0.00000000	12.64764000	1.57480300
171.09999002	0.00000000	12.64764000	1.57480300
171.29999001	0.00000000	12.64764000	1.57480300
171.49998999	0.00000000	12.64764000	1.57480300
171.69998998	0.00000000	12.64764000	1.57480300
171.89998997	0.00000000	12.64764000	1.57480300
172.09998996	0.00000000	12.64764000	1.57480300
172.29998995	0.00000000	12.64764000	1.57480300
172.49998994	0.00000000	12.64764000	1.61786400
172.69998992	0.00000000	12.64764000	1.99311000
172.89998991	0.00000000	12.64764000	2.68823800
173.09998990	0.00000000	12.64764000	2.68823800
173.29998989	0.00000000	12.64764000	1.99311000
173.49998988	0.00000000	12.64764000	1.61786400
173.69998986	0.00000000	12.64764000	1.57480300
173.89998985	0.00000000	12.64764000	1.57480300
174.09998984	0.00000000	12.64764000	1.57480300
174.29998983	0.00000000	12.64764000	1.57480300
174.49998982	0.00000000	12.64764000	1.57480300
174.69998980	0.00000000	12.64764000	1.57480300
174.89998979	0.00000000	12.64764000	1.57480300
175.09998978	0.00000000	12.64764000	1.57480300
175.29998977	0.00000000	12.64764000	1.57480300
175.49998976	0.00000000	12.64764000	1.57480300
175.69998975	0.00000000	12.64764000	1.57480300
175.89998973	0.00000000	12.64764000	1.61786400
176.09998972	0.00000000	12.64764000	1.99311000
176.29998971	0.00000000	12.64764000	2.68823800
176.49998970	0.00000000	12.64764000	2.73745100
176.69998969	0.00000000	12.64764000	2.36835600
176.89998967	0.00000000	12.64764000	2.36220500
177.09998966	0.00000000	12.64764000	1.95004900
177.29998965	0.00000000	12.64764000	1.61786400
177.49998964	0.00000000	12.64764000	1.57480300
177.69998963	0.00000000	12.64764000	1.57480300
177.89998961	0.00000000	12.64764000	1.57480300
178.09998960	0.00000000	12.64764000	1.57480300
178.29998959	0.00000000	12.64764000	1.57480300
178.49998958	0.00000000	12.64764000	1.61786400
178.69998957	0.00000000	12.64764000	1.99311000
178.89998956	0.00000000	12.64764000	2.68823800
179.09998954	0.00000000	12.64764000	2.73745100
179.29998953	0.00000000	12.64764000	2.36835600
179.49998952	0.00000000	12.64764000	2.36220500
179.69998951	0.00000000	12.64764000	1.95004900
179.89998950	0.00000000	12.64764000	1.61786400
180.09998948	0.00000000	12.64764000	1.61786400
180.29998947	0.00000000	12.64764000	1.95004900
180.49998946	0.00000000	12.64764000	2.31914400
180.69998945	0.00000000	12.64764000	1.95004900
180.89998944	0.00000000	12.64764000	1.61786400
181.09998942	0.00000000	12.64764000	1.57480300
181.29998941	0.00000000	12.64764000	1.61786400
181.49998940	0.00000000	12.64764000	1.95004900
181.69998939	0.00000000	12.64764000	2.31914400
181.89998938	0.00000000	12.64764000	1.99311000
182.09998937	0.00000000	12.64764000	1.99311000
182.29998935	0.00000000	12.64764000	2.31914400
182.49998934	0.00000000	12.64764000	1.95004900
182.69998933	0.00000000	12.64764000	1.61786400
182.89998932	0.00000000	12.64764000	1.57480300
183.09998931	0.00000000	12.64764000	1.57480300
183.29998929	0.00000000	12.64764000	1.57480300
183.49998928	0.00000000	12.64764000	1.57480300
183.69998927	0.00000000	12.64764000	1.57480300
183.89998926	0.00000000	12.64764000	1.57480300
184.09998925	0.00000000	12.64764000	1.61786400
184.29998923	0.00000000	12.64764000	1.99311000
184.49998922	0.00000000	12.60458000	2.73745100
184.69998921	0.00000000	12.27239000	3.11269700
184.89998920	0.00000000	11.90330000	3.15575800
185.09998919	0.00000000	12.27239000	3.11269700
185.29998918	0.00000000	12.60458000	2.78051200
185.49998916	0.00000000	12.64764000	2.36835600
185.69998915	0.00000000	12.64764000	2.36220500
185.89998914	0.00000000	12.64764000	1.95004900
186.09998913	0.00000000	12.64764000	1.61786400
186.29998912	0.00000000	12.64764000	1.57480300
186.49998910	0.00000000	12.64764000	1.57480300
186.69998909	0.00000000	12.64764000	1.57480300
186.89998908	0.00000000	12.64764000	1.57480300
187.09998907	0.00000000	12.64764000	1.57480300
187.29998906	0.00000000	12.64764000	1.61786400
187.49998904	0.00000000	12.64764000	1.99311000
187.69998903	0.00000000	12.64764000	2.73745100
187.89998902	0.00000000	12.64764000	3.11269700
188.09998901	0.00000000	12.64764000	3.11269700
188.29998900	0.00000000	12.64764000	2.73745100
188.49998899	0.00000000	12.64764000	1.99311000
188.69998897	0.00000000	12.64764000	1.61786400
188.89998896	0.00000000	12.64764000	1.57480300
189.09998895	0.00000000	12.64764000	1.57480300
189.29998894	0.00000000	12.64764000	1.57480300
189.49998893	0.00000000	12.64764000	1.57480300
189.69998891	0.00000000	12.64764000	1.57480300
189.89998890	0.00000000	12.64764000	1.57480300
190.09998889	0.00000000	12.64764000	1.61786400
190.29998888	0.00000000	12.64764000	1.99311000
190.49998887	0.00000000	12.64764000	2.73745100
190.69998885	0.00000000	12.64764000	3.11269700
190.89998884	0.00000000	12.64764000	3.15575800
191.09998883	0.00000000	12.64764000	3.11269700
191.29998882	0.00000000	12.64764000	2.73745100
191.49998881	0.00000000	12.64764000	1.99311000
191.69998880	0.00000000	12.64764000	1.61786400
191.89998878	0.00000000	12.64764000	1.57480300
192.09998877	0.00000000	12.64764000	1.57480300
192.29998876	0.00000000	12.64764000	1.57480300
192.49998875	0.00000000	12.64764000	1.57480300
192.69998874	0.00000000	12.60458000	1.57480300
192.89998872	0.00000000	12.27239000	1.57480300
193.09998871	0.00000000	11.90330000	1.57480300
193.29998870	0.00000000	12.27239000	1.57480300
193.49998869	0.00000000	12.60458000	1.61786400
193.69998868	0.00000000	12.64764000	1.99311000
193.89998866	0.00000000	12.64764000	2.73745100
194.09998865	0.00000000	12.64764000	3.11269700
194.29998864	0.00000000	12.64764000	3.11269700
194.49998863	0.00000000	12.64764000	2.73745100
194.69998862	0.00000000	12.64764000	1.99311000
194.89998861	0.00000000	12.64764000	1.61786400
195.09998859	0.00000000	12.64764000	1.57480300
195.29998858	0.00000000	12.64764000	1.57480300
195.49998857	0.00000000	12.64764000	1.57480300
195.69998856	0.00000000	12.64764000	1.57480300
195.89998855	0.00000000	12.64764000	1.57480300
196.09998853	0.00000000	12.64764000	1.57480300
