Time	Channel A	Channel B	Channel C
(us)	(V)	(mV)	(mV)

-4.59999956	0.00000000	35.53149000	20.52780000
-4.39999957	0.00000000	35.16240000	20.52780000
-4.19999958	0.00000000	34.83022000	20.52780000
-3.99999959	0.00000000	34.78716000	20.52780000
-3.79999960	0.00000000	34.83022000	20.52780000
-3.59999962	0.00000000	35.16240000	20.52780000
-3.39999963	0.00000000	35.57455000	20.52780000
-3.19999964	0.00000000	35.53765000	20.52780000
-2.99999965	0.00000000	35.61762000	20.52780000
-2.79999966	0.00000000	35.58071000	20.52780000
-2.59999968	0.00000000	35.94980000	20.52780000
-2.39999969	0.00000000	35.94980000	20.52780000
-2.19999970	0.00000000	35.62377000	20.52780000
-1.99999971	0.00000000	35.94980000	20.52780000
-1.79999972	0.00000000	35.94980000	20.52780000
-1.59999973	0.00000000	35.62377000	20.52780000
-1.39999975	0.00000000	35.94980000	20.48474000
-1.19999976	0.00000000	35.94980000	20.19562000
-0.99999977	0.00000000	35.62377000	20.15871000
-0.79999978	0.00000000	35.99286000	20.89075000
-0.59999979	0.00000000	36.32505000	20.85384000
-0.39999981	0.15871060	36.36811000	20.57087000
-0.19999982	0.47736220	36.36811000	20.52780000
0.00000017	0.79601380	36.32505000	20.52780000
0.20000016	0.95533960	35.94980000	20.52780000
0.40000015	0.95533960	35.20546000	20.52780000
0.60000013	0.47736220	34.83022000	20.48474000
0.80000012	-0.15871060	34.83022000	20.15256000
1.00000011	-1.11466500	35.20546000	19.78346000
1.20000010	-2.07062000	35.94980000	20.15256000
1.40000009	-2.70792300	36.32505000	20.48474000
1.60000008	-2.70792300	36.36811000	20.52780000
1.80000006	-1.75196900	36.36811000	20.52780000
2.00000005	-0.15871060	36.36811000	20.52780000
2.20000004	1.91129400	36.36811000	20.52780000
2.40000003	3.98191400	36.32505000	20.48474000
2.60000002	5.25652100	35.94980000	20.10950000
2.80000000	5.09719500	35.20546000	19.36516000
2.99999999	3.66326300	34.83022000	18.98991000
3.19999998	0.95533960	34.83022000	18.98991000
3.39999997	-2.38927200	35.20546000	19.32210000
3.59999996	-5.57517200	35.94980000	19.73425000
3.79999994	-7.64579200	36.32505000	19.74040000
3.99999993	-7.96444400	36.36811000	20.19562000
4.19999992	-6.05315000	36.36811000	20.85384000
4.39999991	-2.54859700	36.36811000	21.26599000
4.59999990	1.91129400	36.36811000	20.90305000
4.79999989	5.89382400	36.36811000	20.57087000
4.99999987	8.76107300	36.36811000	20.52780000
5.19999986	9.39837600	36.36811000	20.52780000
5.39999985	7.64579200	36.32505000	20.48474000
5.59999984	3.98191400	35.94980000	20.10950000
5.79999983	-0.79601380	35.25467000	19.41437000
5.99999981	-5.25652100	35.25467000	19.41437000
6.19999980	-8.44242100	35.94980000	20.10950000
6.39999979	-9.55770200	36.32505000	20.52780000
6.59999978	-8.12377000	36.36811000	20.90305000
6.79999977	-4.93786900	36.36811000	21.26599000
6.99999975	-0.63668800	36.36811000	20.94611000
7.19999974	3.66326300	36.36811000	20.94611000
7.39999973	6.69045300	36.36811000	21.26599000
7.59999972	7.80511800	36.36811000	20.90305000
7.79999971	7.00848900	36.36811000	20.57087000
7.99999970	4.45989200	36.36811000	20.52780000
8.19999968	1.27399100	36.36811000	20.52780000
8.39999967	-1.91129400	36.36811000	20.52780000
8.59999966	-4.30056600	36.36811000	20.57087000
8.79999965	-5.25652100	36.36811000	20.94611000
8.99999964	-4.77854300	36.36811000	21.64124000
9.19999962	-3.34522600	36.36811000	21.64124000
9.39999961	-1.43331700	36.36811000	20.94611000
9.59999960	0.47736220	36.36811000	20.57087000
9.79999959	1.91129400	36.36811000	20.52780000
9.99999958	2.54859700	36.36811000	20.57087000
10.19999956	2.38927200	36.36811000	20.90305000
10.39999955	1.75196900	36.36811000	21.26599000
10.59999954	0.79601380	36.36811000	20.90305000
10.79999953	0.00000000	36.36811000	20.57087000
10.99999952	-0.63668800	36.36811000	20.52780000
11.19999951	-0.95533960	36.36811000	20.52780000
11.39999949	-0.95533960	36.36811000	20.52780000
11.59999948	-0.79601380	36.36811000	20.52780000
11.79999947	-0.47736220	36.36811000	20.52780000
11.99999946	-0.31803640	36.36811000	20.52780000
12.19999945	-0.15871060	36.36811000	20.52780000
12.39999943	-0.15871060	36.36811000	20.52780000
12.59999942	0.00000000	36.36811000	20.52780000
12.79999941	0.00000000	36.36811000	20.52780000
12.99999940	0.00000000	36.36811000	20.52780000
13.19999939	0.00000000	36.36811000	20.52780000
13.39999937	0.00000000	36.36811000	20.52780000
13.59999936	0.00000000	36.36811000	20.52780000
13.79999935	0.00000000	36.36811000	20.52780000
13.99999934	-0.15871060	36.36811000	20.52780000
14.19999933	-0.15871060	36.36811000	20.52780000
14.39999932	-0.15871060	36.36811000	20.52780000
14.59999930	-0.15871060	36.36811000	20.52780000
14.79999929	0.00000000	36.36811000	20.52780000
14.99999928	0.00000000	36.32505000	20.52780000
15.19999927	0.00000000	35.99286000	20.52780000
15.39999926	0.00000000	35.62377000	20.52780000
15.59999924	0.00000000	35.99286000	20.52780000
15.79999923	0.00000000	36.32505000	20.52780000
15.99999922	0.00000000	36.36811000	20.52780000
16.19999921	0.00000000	36.36811000	20.52780000
16.39999920	-0.15871060	36.36811000	20.52780000
16.59999919	-0.15871060	36.41117000	20.52780000
16.79999917	-0.15871060	36.78642000	20.52780000
16.99999916	0.00000000	37.53075000	20.52780000
17.19999915	0.00000000	37.90600000	20.52780000
17.39999914	0.00000000	37.94907000	20.52780000
17.59999913	0.00000000	37.94907000	20.52780000
17.79999911	0.00000000	37.90600000	20.52780000
17.99999910	0.00000000	37.48154000	20.52780000
18.19999909	0.00000000	36.27584000	20.52780000
18.39999908	0.00000000	34.41191000	20.52780000
18.59999907	0.00000000	32.46186000	20.52780000
18.79999905	-0.15871060	31.33612000	20.52780000
18.99999904	0.00000000	30.96703000	20.52780000
19.19999903	0.00000000	32.17273000	20.52780000
19.39999902	0.00000000	34.87328000	20.52780000
19.59999901	0.00000000	38.36737000	20.52780000
19.79999900	0.00000000	42.27362000	20.52780000
19.99999898	0.00000000	45.71850000	20.52780000
20.19999897	0.00000000	47.99458000	20.52780000
20.39999896	0.00000000	47.95152000	20.52780000
20.59999895	0.00000000	45.20792000	20.52780000
20.79999894	0.00000000	40.08981000	20.52780000
20.99999892	0.00000000	32.73868000	20.52780000
21.19999891	0.00000000	24.68627000	20.52780000
21.39999890	0.00000000	18.54700000	20.57087000
21.59999889	0.00000000	15.88952000	20.90305000
21.79999888	0.00000000	17.89493000	21.26599000
21.99999886	0.00000000	24.91388000	20.90305000
22.19999885	0.00000000	35.75910000	20.57087000
22.39999884	0.00000000	48.50517000	20.52780000
22.59999883	0.00000000	60.04552000	20.57087000
22.79999882	0.00000000	67.35358000	20.94611000
22.99999881	0.00000000	68.42396000	21.68430000
23.19999879	0.00000000	62.14320000	22.05955000
23.39999878	0.00000000	48.97884000	22.14567000
23.59999877	0.00000000	31.57603000	22.52091000
23.79999876	0.00000000	13.84719000	23.26525000
23.99999875	0.00000000	-0.01230315	23.59129000
24.19999873	0.00000000	-6.11466500	23.21604000
24.39999872	0.00000000	-2.57751000	22.05955000
24.59999871	0.00000000	10.62992000	20.52780000
24.79999870	0.00000000	31.05930000	18.94685000
24.99999869	0.00000000	53.85703000	17.40895000
25.19999867	0.00000000	73.54207000	16.25246000
25.39999866	0.00000000	85.86983000	15.92027000
25.59999865	0.00000000	87.31545000	16.71383000
25.79999864	-0.15871060	76.89468000	19.08218000
25.99999863	0.00000000	56.79134000	22.52091000
26.19999862	0.00000000	31.71137000	26.42101000
26.39999860	0.00000000	7.38188900	29.86589000
26.59999859	0.00000000	-10.34695000	32.18504000
26.79999858	0.00000000	-17.32283000	32.46801000
26.99999857	0.00000000	-11.92790000	30.09350000
27.19999856	0.00000000	4.26304100	24.66166000
27.39999854	0.00000000	27.47908000	17.32283000
27.59999853	0.00000000	52.55905000	9.60875900
27.79999852	0.00000000	73.81889000	3.10654500
27.99999851	0.00000000	86.20201000	0.08612204
28.19999850	0.00000000	87.40771000	1.61786400
28.39999848	0.00000000	77.39911000	7.46801100
28.59999847	0.00000000	58.88287000	16.80610000
28.79999846	0.00000000	36.45423000	28.42027000
28.99999845	0.00000000	14.86836000	39.94832000
29.19999844	0.00000000	-0.66437010	48.35752000
29.39999843	0.00000000	-6.90821800	51.00885000
29.59999841	0.00000000	-3.87549200	46.77657000
29.79999840	0.00000000	8.07701800	36.69414000
29.99999839	0.00000000	25.38755000	22.75467000
30.19999838	0.00000000	43.62696000	7.28961600
30.39999837	0.00000000	59.53494000	-6.18848400
30.59999835	0.00000000	69.96185000	-14.64075000
30.79999834	0.00000000	72.74852000	-15.75418000
30.99999833	0.00000000	67.77190000	-8.79060000
31.19999832	0.00000000	56.97588000	4.73056000
31.39999831	0.00000000	42.69193000	22.10261000
31.59999829	0.00000000	28.35876000	39.48080000
31.79999828	0.00000000	17.10138000	53.00197000
31.99999827	0.00000000	10.50074000	59.97170000
32.19999826	0.00000000	10.07628000	58.76599000
32.39999825	0.00000000	15.42815000	49.51402000
32.59999824	0.00000000	24.69242000	34.04897000
32.79999822	0.00000000	35.94980000	15.92027000
32.99999821	0.00000000	46.70275000	-1.07652500
33.19999820	0.00000000	54.45989000	-13.06594000
33.39999819	0.00000000	57.25885000	-17.75344000
33.59999818	0.00000000	55.76402000	-14.64075000
33.79999816	0.00000000	50.69513000	-4.23228400
33.99999815	0.00000000	42.59965000	11.23277000
34.19999814	0.00000000	33.80290000	28.19882000
34.39999813	0.00000000	26.82701000	43.28863000
34.59999812	0.00000000	23.33292000	52.95890000
34.79999810	0.00000000	23.66511000	55.69635000
34.99999809	0.00000000	27.47293000	51.05191000
35.19999808	0.00000000	33.24926000	39.89911000
35.39999807	0.00000000	39.43774000	25.26452000
35.59999806	0.00000000	44.78961000	10.58071000
35.79999805	0.00000000	47.48400000	-0.98425190
35.99999803	0.00000000	46.78888000	-6.79133800
36.19999802	0.00000000	43.71924000	-5.67790300
36.39999801	0.00000000	39.06250000	1.61786400
36.59999800	0.00000000	33.75369000	13.13976000
36.79999799	0.00000000	29.89665000	25.82431000
36.99999797	0.00000000	28.68479000	36.18971000
37.19999796	0.00000000	29.42913000	41.66461000
37.39999795	0.00000000	32.22195000	41.30167000
37.59999794	0.00000000	36.78642000	35.94980000
37.79999793	0.00000000	41.76304000	26.70398000
37.99999791	0.00000000	45.25713000	16.43085000
38.19999790	0.00000000	46.83809000	8.34768700
38.39999789	0.00000000	46.46284000	4.90895600
38.59999788	0.00000000	44.13755000	6.81594400
38.79999787	0.00000000	40.64345000	13.69340000
38.99999786	0.00000000	36.36811000	23.21604000
39.19999784	0.00000000	32.17273000	32.04970000
39.39999783	0.00000000	29.42913000	37.77067000
39.59999782	0.00000000	28.63558000	38.55192000
39.79999781	0.00000000	29.38607000	33.95669000
39.99999780	0.00000000	31.75443000	25.91043000
40.19999778	0.00000000	35.20546000	16.29552000
40.39999777	0.00000000	39.11171000	7.88631800
40.59999776	0.00000000	42.59965000	3.27878900
40.79999775	0.00000000	45.34325000	3.65403500
40.99999774	0.00000000	46.88115000	9.04281500
41.19999772	0.00000000	46.88115000	17.87647000
41.39999771	0.00000000	45.30019000	27.82357000
41.59999770	0.00000000	42.22441000	35.90674000
41.79999769	0.00000000	38.36737000	39.76993000
41.99999768	0.00000000	34.87328000	39.01944000
42.19999767	0.00000000	32.12967000	33.63066000
42.39999765	0.00000000	30.59178000	25.21530000
42.59999764	0.00000000	30.54872000	16.33858000
42.79999763	0.00000000	31.71137000	9.04281500
42.99999762	0.00000000	33.61835000	5.14886800
43.19999761	0.00000000	35.99286000	5.46875000
43.39999759	0.00000000	38.32431000	8.95669300
43.59999758	0.00000000	40.64345000	15.13902000
43.79999757	0.00000000	42.13828000	22.71161000
43.99999756	0.00000000	42.22441000	28.51870000
44.19999755	0.00000000	41.52928000	31.30536000
44.39999753	0.00000000	41.15403000	31.76673000
44.59999752	0.00000000	41.11097000	29.82283000
44.79999751	0.00000000	41.06791000	26.37795000
44.99999750	0.00000000	40.69267000	22.14567000
45.19999749	0.00000000	39.86220000	18.29478000
45.39999748	0.00000000	38.69341000	15.92027000
45.59999746	0.00000000	36.65108000	14.76378000
45.79999745	0.00000000	33.99360000	15.13902000
45.99999744	0.00000000	30.88090000	17.03986000
46.19999743	0.00000000	28.63558000	19.36516000
46.39999742	0.00000000	27.84818000	22.10261000
46.59999740	0.00000000	29.10310000	24.75394000
46.79999739	0.00000000	32.59719000	26.28568000
46.99999738	0.00000000	38.03519000	26.32874000
47.19999737	0.00000000	44.22982000	25.21530000
47.39999736	0.00000000	50.00000000	23.64050000
47.59999734	0.00000000	53.76476000	21.64124000
47.79999733	0.00000000	53.76476000	18.98991000
47.99999732	0.00000000	49.90772000	16.71383000
48.19999731	0.00000000	43.30093000	15.92027000
48.39999730	-0.15871060	34.78716000	16.25246000
48.59999729	0.00000000	26.31643000	17.50123000
48.79999727	0.00000000	20.21407000	19.82652000
48.99999726	0.00000000	18.27018000	23.26525000
49.19999725	0.00000000	21.37672000	26.28568000
49.39999724	0.00000000	28.31570000	27.90969000
49.59999723	0.00000000	37.99213000	28.28494000
49.79999721	0.00000000	47.95152000	27.44832000
49.99999720	0.00000000	55.30265000	24.71087000
50.19999719	0.00000000	58.37229000	20.52780000
50.39999718	0.00000000	56.46530000	16.33858000
50.59999717	0.00000000	49.90772000	13.60113000
50.79999715	0.00000000	40.69267000	12.80758000
50.99999714	0.00000000	31.01624000	13.55807000
51.19999713	0.00000000	23.37598000	15.92027000
51.39999712	0.00000000	19.89419000	19.40822000
51.59999711	0.00000000	21.79503000	23.64050000
51.79999710	0.00000000	27.89739000	27.44832000
51.99999708	0.00000000	36.36811000	29.40452000
52.19999707	0.00000000	44.83267000	29.44759000
52.39999706	0.00000000	50.97810000	27.86663000
52.59999705	0.00000000	53.30339000	24.79700000
52.79999704	0.00000000	51.02116000	20.94611000
52.99999702	0.00000000	45.30019000	17.50123000
53.19999701	0.00000000	37.99213000	15.18209000
53.39999700	0.00000000	31.05930000	14.80684000
53.59999699	0.00000000	26.45177000	16.29552000
53.79999698	0.00000000	25.28912000	18.94685000
53.99999696	0.00000000	27.98351000	21.64124000
54.19999695	0.00000000	33.71063000	23.64050000
54.39999694	0.00000000	40.60039000	25.17224000
54.59999693	0.00000000	46.37057000	25.86737000
54.79999692	0.00000000	49.48942000	24.75394000
54.99999691	0.00000000	49.48942000	22.52091000
55.19999689	0.00000000	46.41363000	20.66314000
55.39999688	0.00000000	41.06791000	19.83268000
55.59999687	0.00000000	35.29773000	20.24483000
55.79999686	0.00000000	30.68405000	21.36442000
55.99999685	0.00000000	28.35876000	23.30832000
56.19999683	0.00000000	29.10310000	25.12918000
56.39999682	0.00000000	32.17273000	25.91043000
56.59999681	0.00000000	36.82948000	25.12918000
56.79999680	0.00000000	42.18134000	23.17298000
56.99999679	0.00000000	46.37057000	20.10950000
57.19999677	0.00000000	47.95152000	16.67077000
57.39999676	0.00000000	46.88115000	14.38853000
57.59999675	0.00000000	44.18061000	13.65034000
57.79999674	0.00000000	40.64345000	15.22515000
57.99999673	0.00000000	36.45423000	19.08218000
58.19999672	0.00000000	33.01550000	24.05881000
58.39999670	0.00000000	31.84670000	29.07234000
58.59999669	0.00000000	32.54798000	32.46801000
58.79999668	0.00000000	34.87328000	33.25541000
58.99999667	0.00000000	37.90600000	30.88705000
59.19999666	0.00000000	40.64345000	25.91043000
59.39999664	0.00000000	42.55659000	19.36516000
59.59999663	0.00000000	43.34399000	13.22589000
59.79999662	0.00000000	42.59965000	8.95669300
59.99999661	0.00000000	41.11097000	7.46801100
60.19999660	0.00000000	39.53002000	9.41806000
60.39999658	0.00000000	37.99213000	14.80684000
60.59999657	0.00000000	36.83563000	22.10261000
60.79999656	0.00000000	36.41117000	29.39837000
60.99999655	0.00000000	36.46038000	34.78716000
61.19999654	0.00000000	37.25394000	36.73720000
61.39999653	0.00000000	39.11171000	35.16240000
61.59999651	0.00000000	40.60039000	30.13656000
61.79999650	0.00000000	41.01870000	22.43479000
61.99999649	0.00000000	40.64345000	14.38853000
62.19999648	0.00000000	39.48696000	7.83710600
62.39999647	0.00000000	37.94907000	4.77362200
62.59999645	0.00000000	36.41117000	5.88705700
62.79999644	0.00000000	35.29773000	10.48843000
62.99999643	0.00000000	35.29773000	17.41511000
63.19999642	0.00000000	36.41117000	24.75394000
63.39999641	0.00000000	37.99213000	30.97933000
63.59999639	0.00000000	39.90526000	35.20546000
63.79999638	0.00000000	41.80610000	36.36811000
63.99999637	0.00000000	42.55659000	34.04897000
64.19999636	0.00000000	42.22441000	29.07234000
64.39999635	0.00000000	41.01870000	22.52091000
64.59999634	0.00000000	39.15477000	16.38164000
64.79999632	0.00000000	37.20472000	12.02018000
64.99999631	0.00000000	36.08513000	9.69488100
65.19999630	0.00000000	35.67298000	9.33193800
65.39999629	0.00000000	36.41117000	11.64493000
65.59999628	0.00000000	37.57381000	15.83415000
65.79999626	0.00000000	38.74261000	20.47859000
65.99999625	0.00000000	40.27436000	24.79700000
66.19999624	0.00000000	40.97564000	28.28494000
66.39999623	0.00000000	40.64345000	30.64714000
66.59999622	0.00000000	39.48696000	31.39763000
66.79999620	0.00000000	37.99213000	30.69636000
66.99999619	0.00000000	36.83563000	28.74631000
67.19999618	0.00000000	36.46038000	26.42101000
67.39999617	0.00000000	36.83563000	23.59129000
67.59999616	0.00000000	38.04134000	20.15256000
67.79999615	0.00000000	39.94832000	16.67077000
67.99999613	0.00000000	42.27362000	14.29626000
68.19999612	0.00000000	44.13755000	12.76452000
68.39999611	0.00000000	44.88189000	12.44464000
68.59999610	0.00000000	43.67618000	14.38853000
68.79999609	0.00000000	40.64345000	17.83341000
68.99999607	0.00000000	36.78642000	22.14567000
69.19999606	0.00000000	33.29232000	26.79626000
69.39999605	0.00000000	30.59178000	31.06545000
69.59999604	0.00000000	29.52141000	34.09203000
69.79999603	0.00000000	31.10236000	34.83022000
69.99999601	0.00000000	35.29773000	32.51107000
70.19999600	0.00000000	40.69267000	27.90969000
70.39999599	0.00000000	45.71850000	22.10261000
70.59999598	0.00000000	49.62475000	16.33858000
70.79999597	0.00000000	51.48868000	12.06939000
70.99999596	0.00000000	50.69513000	10.11319000
71.19999594	0.00000000	46.83809000	10.53765000
71.39999593	0.00000000	41.06791000	13.60113000
71.59999592	0.00000000	34.87328000	18.57160000
71.79999591	0.00000000	29.47835000	23.59129000
71.99999590	0.00000000	26.40256000	27.90969000
72.19999588	0.00000000	26.40256000	30.93627000
72.39999587	0.00000000	29.43528000	31.71752000
72.59999586	0.00000000	34.49803000	29.82283000
72.79999585	0.00000000	40.28051000	26.46407000
72.99999584	0.00000000	46.08759000	22.93922000
73.19999582	0.00000000	49.90772000	20.23868000
73.39999581	0.00000000	51.15649000	18.29478000
73.59999580	0.00000000	50.00000000	17.91953000
73.79999579	0.00000000	46.88115000	18.98991000
73.99999578	0.00000000	42.22441000	20.52780000
74.19999577	0.00000000	36.82948000	22.05955000
74.39999575	0.00000000	32.26501000	23.17298000
74.59999574	0.00000000	29.89665000	23.17298000
74.79999573	0.00000000	30.26575000	22.05955000
74.99999572	0.00000000	32.50492000	20.57087000
75.19999571	0.00000000	35.99286000	19.41437000
75.39999569	0.00000000	39.48696000	19.08218000
75.59999568	0.00000000	42.59965000	19.87574000
75.79999567	0.00000000	44.88189000	22.19488000
75.99999566	0.00000000	45.30019000	25.21530000
76.19999565	0.00000000	44.22982000	27.86663000
76.39999563	0.00000000	42.64886000	29.02928000
76.59999562	0.00000000	40.73573000	28.24188000
76.79999561	0.00000000	38.83489000	25.91043000
76.99999560	0.00000000	38.04134000	22.01033000
77.19999559	0.00000000	37.99213000	17.40895000
77.39999558	0.00000000	38.36737000	13.22589000
77.59999556	0.00000000	39.11171000	10.90674000
77.79999555	0.00000000	39.43774000	11.27584000
77.99999554	0.00000000	39.11171000	13.60113000
78.19999553	0.00000000	38.32431000	17.87647000
78.39999552	0.00000000	37.57381000	23.26525000
78.59999550	0.00000000	36.83563000	28.28494000
78.79999549	0.00000000	36.87869000	32.14198000
78.99999548	0.00000000	38.04134000	33.63066000
79.19999547	0.00000000	39.94832000	32.14198000
79.39999546	0.00000000	42.27362000	28.32800000
79.59999544	0.00000000	44.13755000	23.68356000
79.79999543	0.00000000	44.92495000	19.03912000
79.99999542	0.00000000	44.18061000	15.18209000
80.19999541	0.00000000	42.64886000	13.22589000
80.39999540	0.00000000	40.60039000	13.13976000
80.59999539	0.00000000	37.57381000	14.34547000
80.79999537	0.00000000	34.55339000	16.67077000
80.99999536	0.00000000	33.37844000	20.15256000
81.19999535	0.00000000	33.71063000	23.59129000
81.39999534	0.00000000	35.29773000	26.37795000
81.59999533	0.00000000	37.99213000	28.32800000
81.79999531	0.00000000	41.06791000	29.49065000
81.99999530	0.00000000	43.76230000	29.49065000
82.19999529	0.00000000	45.30019000	28.32800000
82.39999528	0.00000000	45.34325000	26.42101000
82.59999527	0.00000000	44.18061000	24.05881000
82.79999525	-0.15871060	42.27362000	21.72736000
82.99999524	0.00000000	39.94832000	19.32210000
83.19999523	0.00000000	38.04134000	17.03986000
83.39999522	0.00000000	36.83563000	15.13902000
83.59999521	0.00000000	36.46038000	14.80684000
83.79999520	0.00000000	36.83563000	16.29552000
83.99999518	0.00000000	37.99213000	18.98991000
84.19999517	0.00000000	39.48696000	22.15182000
84.39999516	0.00000000	40.64345000	25.63976000
84.59999515	0.00000000	41.06791000	29.07234000
84.79999514	0.00000000	41.11097000	30.97933000
84.99999512	0.00000000	41.11097000	31.02239000
85.19999511	0.00000000	41.11097000	29.44759000
85.39999510	0.00000000	41.11097000	26.32874000
85.59999509	0.00000000	41.11097000	22.10261000
85.79999508	0.00000000	41.11097000	17.87647000
85.99999506	0.00000000	41.11097000	14.76378000
86.19999505	0.00000000	41.06791000	13.22589000
86.39999504	0.00000000	40.64345000	13.64419000
86.59999503	0.00000000	39.53002000	16.33858000
86.79999502	0.00000000	38.36737000	20.57087000
86.99999501	0.00000000	37.61687000	25.17224000
87.19999499	0.00000000	37.20472000	29.07234000
87.39999498	0.00000000	37.66609000	31.35457000
87.59999497	0.00000000	38.74261000	31.71752000
87.79999496	0.00000000	40.31742000	29.40452000
87.99999495	0.00000000	41.48622000	25.22145000
88.19999493	0.00000000	42.64886000	20.57087000
88.39999492	0.00000000	43.34399000	16.33858000
88.59999491	0.00000000	42.64886000	13.69340000
88.79999490	0.00000000	41.52928000	13.64419000
88.99999489	0.00000000	40.69267000	15.96334000
89.19999487	0.00000000	39.53002000	19.78346000
89.39999486	0.00000000	38.41658000	24.42790000
89.59999485	0.00000000	37.99213000	28.24188000
89.79999484	0.00000000	37.99213000	30.56102000
89.99999483	0.00000000	38.41658000	30.56102000
90.19999482	0.00000000	39.53002000	28.24188000
90.39999480	0.00000000	40.64345000	24.42790000
90.59999479	0.00000000	41.06791000	19.78346000
90.79999478	0.00000000	41.11097000	15.96334000
90.99999477	0.00000000	41.11097000	13.64419000
91.19999476	0.00000000	41.11097000	13.69340000
91.39999474	0.00000000	41.06791000	16.33858000
91.59999473	0.00000000	40.73573000	20.57087000
91.79999472	0.00000000	40.36663000	25.17224000
91.99999471	0.00000000	40.73573000	29.02928000
92.19999470	0.00000000	41.06791000	30.88705000
92.39999468	0.00000000	41.11097000	30.18578000
92.59999467	0.00000000	41.06791000	27.07923000
92.79999466	0.00000000	40.64345000	22.89001000
92.99999465	0.00000000	39.53002000	18.25172000
93.19999464	0.00000000	38.36737000	14.84990000
93.39999463	0.00000000	37.61687000	13.65034000
93.59999461	0.00000000	37.25394000	14.80684000
93.79999460	0.00000000	38.04134000	17.87647000
93.99999459	0.00000000	39.57308000	22.10261000
94.19999458	0.00000000	41.52928000	26.32874000
94.39999457	0.00000000	43.80536000	29.39837000
94.59999455	0.00000000	45.34325000	30.51796000
94.79999454	0.00000000	45.76156000	29.02928000
94.99999453	0.00000000	45.34325000	25.59055000
95.19999452	0.00000000	43.76230000	21.72736000
95.39999451	0.00000000	41.06791000	17.87647000
95.59999449	0.00000000	37.99213000	15.22515000
95.79999448	0.00000000	35.24852000	14.80684000
95.99999447	0.00000000	33.38459000	16.33858000
96.19999446	0.00000000	33.01550000	19.40822000
96.39999445	0.00000000	34.92249000	23.26525000
96.59999444	0.00000000	37.99213000	26.66092000
96.79999442	0.00000000	41.52928000	28.60482000
96.99999441	0.00000000	45.38631000	28.28494000
97.19999440	0.00000000	48.41904000	26.79626000
97.39999439	0.00000000	49.62475000	24.84621000
97.59999438	0.00000000	48.83735000	22.52091000
97.79999436	0.00000000	46.50590000	20.61393000
97.99999435	0.00000000	42.64886000	19.45743000
98.19999434	0.00000000	38.41658000	19.45743000
98.39999433	0.00000000	34.92249000	20.57087000
98.59999432	0.00000000	32.59719000	22.05955000
98.79999430	0.00000000	32.22195000	23.21604000
98.99999429	0.00000000	33.71063000	23.64050000
99.19999428	0.00000000	36.45423000	23.68356000
99.39999427	0.00000000	39.94832000	23.68356000
99.59999426	0.00000000	43.80536000	23.72662000
99.79999425	0.00000000	46.88115000	24.10187000
99.99999423	0.00000000	48.46210000	24.84621000
100.19999422	0.00000000	48.50517000	25.22145000
100.39999421	0.00000000	47.29946000	25.26452000
100.59999420	0.00000000	45.01722000	25.22145000
100.79999419	0.00000000	41.90453000	24.79700000
100.99999417	0.00000000	39.19783000	23.64050000
101.19999416	0.00000000	36.83563000	22.10261000
101.39999415	0.00000000	35.34079000	20.52780000
101.59999414	0.00000000	35.25467000	19.03912000
101.79999413	0.00000000	36.03592000	18.29478000
101.99999411	0.00000000	37.25394000	19.08218000
102.19999410	0.00000000	39.57308000	20.98917000
102.39999409	0.00000000	42.22441000	23.68356000
102.59999408	0.00000000	44.18061000	26.37795000
102.79999407	0.00000000	45.38631000	28.28494000
102.99999406	0.00000000	45.76156000	29.07234000
103.19999404	0.00000000	45.38631000	28.28494000
103.39999403	0.00000000	44.18061000	26.37795000
103.59999402	0.00000000	42.27362000	23.64050000
103.79999401	0.00000000	39.94832000	20.57087000
103.99999400	0.00000000	38.04134000	17.87647000
104.19999398	0.00000000	36.87869000	16.38164000
104.39999397	0.00000000	36.83563000	16.75689000
104.59999396	0.00000000	37.61687000	18.98991000
104.79999395	0.00000000	38.78568000	21.68430000
104.99999394	0.00000000	40.69267000	24.05881000
105.19999392	0.00000000	42.22441000	26.37795000
105.39999391	0.00000000	43.02411000	27.86663000
105.59999390	0.00000000	43.43627000	27.86663000
105.79999389	0.00000000	43.02411000	26.32874000
105.99999388	0.00000000	42.31668000	23.68356000
106.19999387	0.00000000	41.48622000	20.98917000
106.39999385	0.00000000	40.73573000	19.08218000
106.59999384	0.00000000	39.94832000	18.29478000
106.79999383	0.00000000	39.62229000	19.03912000
106.99999382	0.00000000	39.94832000	20.52780000
107.19999381	0.00000000	40.73573000	22.10261000
107.39999379	0.00000000	41.48622000	23.64050000
107.59999378	0.00000000	42.27362000	24.79700000
107.79999377	0.00000000	42.59965000	25.17224000
107.99999376	0.00000000	42.27362000	24.79700000
108.19999375	0.00000000	41.48622000	23.64050000
108.39999374	0.00000000	40.73573000	22.10261000
108.59999372	0.00000000	39.94832000	20.57087000
108.79999371	0.00000000	39.57308000	19.45743000
108.99999370	0.00000000	39.57308000	19.45743000
109.19999369	0.00000000	39.94832000	20.57087000
109.39999368	0.00000000	40.73573000	22.10261000
109.59999366	0.00000000	41.52928000	23.64050000
109.79999365	0.00000000	42.69193000	24.79700000
109.99999364	0.00000000	43.76230000	25.22145000
110.19999363	0.00000000	43.76230000	25.22145000
110.39999362	0.00000000	42.69193000	24.79700000
110.59999360	0.00000000	41.52928000	23.64050000
110.79999359	0.00000000	40.73573000	22.10261000
110.99999358	0.00000000	39.94832000	20.57087000
111.19999357	0.00000000	39.57308000	19.41437000
111.39999356	0.00000000	39.57308000	19.03912000
111.59999355	0.00000000	39.94832000	19.41437000
111.79999353	0.00000000	40.69267000	20.57087000
111.99999352	0.00000000	41.11097000	22.05955000
112.19999351	0.00000000	41.52928000	23.26525000
112.39999350	0.00000000	42.27362000	24.05881000
112.59999349	0.00000000	42.59965000	24.79700000
112.79999347	0.00000000	42.31668000	24.79700000
112.99999346	0.00000000	41.90453000	24.10187000
113.19999345	0.00000000	41.89838000	23.72662000
113.39999344	0.00000000	41.48622000	23.64050000
113.59999343	0.00000000	41.15403000	23.26525000
113.79999341	0.00000000	41.11097000	22.52091000
113.99999340	0.00000000	41.11097000	22.14567000
114.19999339	0.00000000	41.11097000	22.10261000
114.39999338	0.00000000	41.11097000	22.10261000
114.59999337	0.00000000	41.11097000	22.10261000
114.79999336	0.00000000	41.11097000	22.10261000
114.99999334	0.00000000	41.15403000	22.10261000
115.19999333	0.00000000	41.52928000	22.14567000
115.39999332	0.00000000	42.27362000	22.52091000
115.59999331	0.00000000	42.59965000	23.30832000
115.79999330	0.00000000	42.31668000	24.05881000
115.99999328	0.00000000	41.90453000	24.84621000
116.19999327	0.00000000	41.85531000	25.17224000
116.39999326	0.00000000	41.11097000	24.88927000
116.59999325	0.00000000	40.41584000	24.47712000
116.79999324	0.00000000	40.73573000	24.42790000
116.99999322	0.00000000	41.06791000	23.64050000
117.19999321	0.00000000	41.15403000	22.52091000
117.39999320	0.00000000	41.57849000	21.72736000
117.59999319	0.00000000	42.64886000	20.94611000
117.79999318	0.00000000	43.38705000	20.57087000
117.99999317	0.00000000	43.06717000	20.57087000
118.19999315	0.00000000	42.73499000	20.94611000
118.39999314	0.00000000	42.64886000	21.72736000
118.59999313	0.00000000	42.22441000	22.52091000
118.79999312	0.00000000	41.11097000	23.68356000
118.99999311	0.00000000	39.99754000	24.79700000
119.19999309	0.00000000	39.57308000	25.22145000
119.39999308	0.00000000	39.53002000	25.26452000
119.59999307	0.00000000	39.57308000	25.22145000
119.79999306	0.00000000	39.99754000	24.84621000
119.99999305	0.00000000	41.15403000	24.05881000
120.19999303	0.00000000	42.69193000	23.30832000
120.39999302	0.00000000	44.18061000	22.52091000
120.59999301	0.00000000	44.96801000	22.14567000
120.79999300	0.00000000	44.60506000	22.10261000
120.99999299	0.00000000	43.85457000	22.10261000
121.19999298	0.00000000	42.69193000	22.10261000
121.39999296	0.00000000	41.52928000	22.14567000
121.59999295	0.00000000	40.73573000	22.52091000
121.79999294	0.00000000	39.94832000	23.26525000
121.99999293	0.00000000	39.57308000	23.64050000
122.19999292	0.00000000	39.57308000	23.68356000
122.39999290	0.00000000	39.94832000	23.68356000
122.59999289	0.00000000	40.73573000	23.68356000
122.79999288	-0.15871060	41.52928000	23.68356000
122.99999287	0.00000000	42.69193000	23.68356000
123.19999286	0.00000000	43.80536000	23.68356000
123.39999284	0.00000000	44.22982000	23.64050000
123.59999283	0.00000000	44.22982000	23.26525000
123.79999282	0.00000000	43.85457000	22.52091000
123.99999281	0.00000000	43.11023000	22.14567000
124.19999280	0.00000000	42.69193000	22.10261000
124.39999279	0.00000000	42.22441000	22.10261000
124.59999277	0.00000000	41.11097000	22.10261000
124.79999276	0.00000000	39.99754000	22.10261000
124.99999275	0.00000000	39.57308000	22.14567000
125.19999274	0.00000000	39.57308000	22.52091000
125.39999273	0.00000000	39.94832000	23.26525000
125.59999271	0.00000000	40.73573000	23.64050000
125.79999270	0.00000000	41.52928000	23.68356000
125.99999269	0.00000000	42.69193000	23.68356000
126.19999268	0.00000000	43.80536000	23.68356000
126.39999267	0.00000000	44.22982000	23.64050000
126.59999265	0.00000000	44.22982000	23.26525000
126.79999264	0.00000000	43.80536000	22.52091000
126.99999263	0.00000000	42.69193000	22.14567000
127.19999262	0.00000000	41.52928000	22.10261000
127.39999261	0.00000000	40.73573000	22.10261000
127.59999260	0.00000000	39.94832000	22.10261000
127.79999258	0.00000000	39.57308000	22.14567000
127.99999257	0.00000000	39.57308000	22.52091000
128.19999256	0.00000000	39.99754000	23.26525000
128.39999255	0.00000000	41.15403000	23.64050000
128.59999254	0.00000000	42.64886000	23.68356000
128.79999252	0.00000000	43.80536000	23.68356000
128.99999251	0.00000000	44.18061000	23.68356000
129.19999250	0.00000000	43.85457000	23.68356000
129.39999249	0.00000000	43.06717000	23.64050000
129.59999248	0.00000000	42.31668000	23.30832000
129.79999246	0.00000000	41.52928000	22.89616000
129.99999245	0.00000000	41.11097000	22.89001000
130.19999244	0.00000000	40.73573000	22.52091000
130.39999243	0.00000000	40.41584000	22.57013000
130.59999242	0.00000000	41.15403000	23.26525000
130.79999241	0.00000000	42.22441000	23.64050000
130.99999239	0.00000000	42.69193000	23.68356000
131.19999238	0.00000000	43.11023000	23.68356000
131.39999237	0.00000000	43.85457000	23.68356000
131.59999236	0.00000000	44.18061000	23.64050000
131.79999235	0.00000000	43.85457000	23.26525000
131.99999233	0.00000000	43.11023000	22.52091000
132.19999232	0.00000000	42.69193000	22.14567000
132.39999231	0.00000000	42.27362000	22.14567000
132.59999230	0.00000000	41.52928000	22.52091000
132.79999229	0.00000000	41.20325000	23.26525000
132.99999227	0.00000000	41.52928000	23.68356000
133.19999226	0.00000000	42.27362000	24.10187000
133.39999225	0.00000000	42.64886000	24.84621000
133.59999224	0.00000000	42.69193000	25.22145000
133.79999223	0.00000000	42.69193000	25.22145000
133.99999222	0.00000000	42.69193000	24.84621000
134.19999220	0.00000000	42.69193000	24.05881000
134.39999219	0.00000000	42.69193000	23.30832000
134.59999218	0.00000000	42.69193000	22.52091000
134.79999217	0.00000000	42.69193000	22.14567000
134.99999216	0.00000000	42.73499000	22.10261000
135.19999214	0.00000000	43.06717000	22.10261000
135.39999213	0.00000000	43.43627000	22.14567000
135.59999212	0.00000000	43.06717000	22.52091000
135.79999211	0.00000000	42.69193000	23.26525000
135.99999210	0.00000000	42.27362000	23.68356000
136.19999208	0.00000000	41.52928000	24.05881000
136.39999207	0.00000000	41.15403000	24.42790000
136.59999206	0.00000000	41.11097000	24.05881000
136.79999205	0.00000000	41.15403000	23.68356000
136.99999204	0.00000000	41.52928000	23.26525000
137.19999203	0.00000000	42.31668000	22.52091000
137.39999201	0.00000000	43.06717000	22.14567000
137.59999200	0.00000000	43.85457000	22.10261000
137.79999199	0.00000000	44.22982000	22.10261000
137.99999198	0.00000000	44.22982000	22.10261000
138.19999197	0.00000000	43.80536000	22.10261000
138.39999195	0.00000000	42.69193000	22.10261000
138.59999194	0.00000000	41.57849000	22.10261000
138.79999193	0.00000000	41.15403000	22.14567000
138.99999192	0.00000000	41.11097000	22.52091000
139.19999191	0.00000000	41.15403000	23.30832000
139.39999189	0.00000000	41.52928000	24.01575000
139.59999188	0.00000000	42.27362000	24.42790000
139.79999187	0.00000000	42.69193000	24.05881000
139.99999186	0.00000000	43.11023000	23.68356000
140.19999185	0.00000000	43.80536000	23.26525000
140.39999184	0.00000000	43.80536000	22.52091000
140.59999182	0.00000000	43.11023000	22.10261000
140.79999181	0.00000000	42.73499000	21.72736000
140.99999180	0.00000000	42.64886000	21.36442000
141.19999179	0.00000000	42.31668000	21.72736000
141.39999178	0.00000000	41.94759000	22.10261000
141.59999176	0.00000000	42.31668000	22.52091000
141.79999175	0.00000000	42.64886000	23.30832000
141.99999174	0.00000000	42.69193000	24.05881000
142.19999173	0.00000000	42.69193000	24.84621000
142.39999172	0.00000000	42.69193000	25.22145000
142.59999170	0.00000000	42.69193000	25.22145000
142.79999169	0.00000000	42.69193000	24.79700000
142.99999168	0.00000000	42.69193000	23.68356000
143.19999167	0.00000000	42.69193000	22.57013000
143.39999166	0.00000000	42.69193000	22.14567000
143.59999165	0.00000000	42.69193000	22.10261000
143.79999163	0.00000000	42.69193000	22.14567000
143.99999162	0.00000000	42.73499000	22.52091000
144.19999161	0.00000000	43.11023000	23.26525000
144.39999160	0.00000000	43.85457000	23.68356000
144.59999159	0.00000000	44.22982000	24.10187000
144.79999157	0.00000000	44.27288000	24.84621000
144.99999156	0.00000000	44.22982000	25.22145000
145.19999155	0.00000000	43.85457000	25.26452000
145.39999154	0.00000000	43.11023000	25.22145000
145.59999153	0.00000000	42.73499000	24.84621000
145.79999151	0.00000000	42.69193000	24.05881000
145.99999150	0.00000000	42.69193000	23.30832000
146.19999149	0.00000000	42.73499000	22.52091000
146.39999148	0.00000000	43.06717000	22.14567000
146.59999147	0.00000000	43.47933000	22.14567000
146.79999146	0.00000000	43.48548000	22.52091000
146.99999144	0.00000000	43.89763000	23.30832000
147.19999143	0.00000000	44.22982000	24.05881000
147.39999142	0.00000000	44.22982000	24.84621000
147.59999141	0.00000000	43.85457000	25.22145000
147.79999140	0.00000000	43.11023000	25.26452000
147.99999138	0.00000000	42.73499000	25.22145000
148.19999137	0.00000000	42.69193000	24.84621000
148.39999136	0.00000000	42.69193000	24.10187000
148.59999135	0.00000000	42.69193000	23.72662000
148.79999134	0.00000000	42.69193000	23.64050000
148.99999132	0.00000000	42.73499000	23.30832000
149.19999131	0.00000000	43.11023000	22.93922000
149.39999130	0.00000000	43.85457000	23.30832000
149.59999129	0.00000000	44.22982000	23.64050000
149.79999128	0.00000000	44.27288000	23.68356000
149.99999127	0.00000000	44.22982000	23.68356000
150.19999125	0.00000000	43.85457000	23.68356000
150.39999124	0.00000000	43.11023000	23.72662000
150.59999123	0.00000000	42.73499000	24.05881000
150.79999122	0.00000000	42.69193000	24.42790000
150.99999121	0.00000000	42.69193000	24.05881000
151.19999119	0.00000000	42.69193000	23.72662000
151.39999118	0.00000000	42.69193000	23.68356000
151.59999117	0.00000000	42.69193000	23.68356000
151.79999116	0.00000000	42.73499000	23.64050000
151.99999115	0.00000000	43.11023000	23.26525000
152.19999113	0.00000000	43.85457000	22.57013000
152.39999112	0.00000000	44.22982000	22.57013000
152.59999111	0.00000000	44.27288000	23.26525000
152.79999110	0.00000000	44.22982000	23.64050000
152.99999109	0.00000000	43.89763000	23.68356000
153.19999108	0.00000000	43.48548000	23.68356000
153.39999106	0.00000000	43.47933000	23.68356000
153.59999105	0.00000000	43.06717000	23.68356000
153.79999104	0.00000000	42.73499000	23.68356000
153.99999103	0.00000000	42.69193000	23.68356000
154.19999102	0.00000000	42.69193000	23.68356000
154.39999100	0.00000000	42.69193000	23.68356000
154.59999099	0.00000000	42.73499000	23.68356000
154.79999098	0.00000000	43.11023000	23.68356000
154.99999097	0.00000000	43.85457000	23.64050000
155.19999096	0.00000000	44.22982000	23.26525000
155.39999094	0.00000000	44.27288000	22.57013000
155.59999093	0.00000000	44.27288000	22.57013000
155.79999092	0.00000000	44.27288000	23.26525000
155.99999091	0.00000000	44.27288000	23.64050000
156.19999090	0.00000000	44.22982000	23.68356000
156.39999089	0.00000000	43.85457000	23.72662000
156.59999087	0.00000000	43.11023000	24.10187000
156.79999086	0.00000000	42.73499000	24.84621000
156.99999085	0.00000000	42.69193000	25.17224000
157.19999084	0.00000000	42.69193000	24.84621000
157.39999083	0.00000000	42.69193000	24.10187000
157.59999081	0.00000000	42.73499000	23.72662000
157.79999080	0.00000000	43.11023000	23.68356000
157.99999079	0.00000000	43.85457000	23.64050000
158.19999078	0.00000000	44.22982000	23.30832000
158.39999077	0.00000000	44.27288000	22.89616000
158.59999075	0.00000000	44.27288000	22.93307000
158.79999074	0.00000000	44.27288000	22.89616000
158.99999073	0.00000000	44.27288000	23.35138000
159.19999072	0.00000000	44.22982000	24.05881000
159.39999071	0.00000000	43.85457000	24.84621000
159.59999070	0.00000000	43.11023000	25.22145000
159.79999068	0.00000000	42.73499000	25.26452000
159.99999067	0.00000000	42.69193000	25.26452000
160.19999066	0.00000000	42.69193000	25.22145000
160.39999065	0.00000000	42.69193000	24.84621000
160.59999064	0.00000000	42.69193000	24.10187000
160.79999062	0.00000000	42.73499000	23.72662000
160.99999061	0.00000000	43.06717000	23.64050000
161.19999060	0.00000000	43.47933000	23.30832000
161.39999059	0.00000000	43.48548000	22.93922000
161.59999058	0.00000000	43.89763000	23.30832000
161.79999056	0.00000000	44.22982000	23.64050000
161.99999055	0.00000000	44.27288000	23.72662000
162.19999054	0.00000000	44.27288000	24.05881000
162.39999053	0.00000000	44.27288000	24.47096000
162.59999052	0.00000000	44.27288000	24.47712000
162.79999051	0.00000000	44.22982000	24.88927000
162.99999049	0.00000000	43.85457000	25.22145000
163.19999048	0.00000000	43.15945000	25.26452000
163.39999047	0.00000000	43.11023000	25.22145000
163.59999046	0.00000000	43.43627000	24.84621000
163.79999045	0.00000000	43.11023000	24.10187000
163.99999043	0.00000000	43.15945000	23.72662000
164.19999042	0.00000000	43.85457000	23.68356000
164.39999041	0.00000000	44.22982000	23.68356000
164.59999040	0.00000000	44.27288000	23.68356000
164.79999039	0.00000000	44.27288000	23.68356000
164.99999037	0.00000000	44.27288000	23.68356000
165.19999036	0.00000000	44.27288000	23.68356000
165.39999035	0.00000000	44.27288000	23.68356000
165.59999034	0.00000000	44.22982000	23.68356000
165.79999033	0.00000000	43.85457000	23.68356000
165.99999032	0.00000000	43.11023000	23.68356000
166.19999030	0.00000000	42.73499000	23.68356000
166.39999029	0.00000000	42.69193000	23.68356000
166.59999028	0.00000000	42.73499000	23.68356000
166.79999027	0.00000000	43.11023000	23.68356000
166.99999026	0.00000000	43.85457000	23.68356000
167.19999024	0.00000000	44.22982000	23.68356000
167.39999023	0.00000000	44.27288000	23.68356000
167.59999022	0.00000000	44.27288000	23.68356000
167.79999021	0.00000000	44.27288000	23.68356000
167.99999020	0.00000000	44.27288000	23.68356000
168.19999018	0.00000000	44.27288000	23.68356000
168.39999017	0.00000000	44.27288000	23.68356000
168.59999016	0.00000000	44.27288000	23.68356000
168.79999015	0.00000000	44.27288000	23.68356000
168.99999014	0.00000000	44.27288000	23.68356000
169.19999013	0.00000000	44.27288000	23.68356000
169.39999011	0.00000000	44.27288000	23.68356000
169.59999010	0.00000000	44.27288000	23.68356000
169.79999009	0.00000000	44.27288000	23.68356000
169.99999008	0.00000000	44.27288000	23.68356000
170.19999007	0.00000000	44.27288000	23.68356000
170.39999005	0.00000000	44.27288000	23.68356000
170.59999004	0.00000000	44.27288000	23.68356000
170.79999003	0.00000000	44.27288000	23.68356000
170.99999002	0.00000000	44.27288000	23.68356000
171.19999001	0.00000000	44.27288000	23.68356000
171.39998999	0.00000000	44.27288000	23.68356000
171.59998998	0.00000000	44.27288000	23.68356000
171.79998997	0.00000000	44.27288000	23.68356000
171.99998996	0.00000000	44.27288000	23.68356000
172.19998995	0.00000000	44.27288000	23.68356000
172.39998994	0.00000000	44.27288000	23.68356000
172.59998992	0.00000000	44.27288000	23.68356000
172.79998991	0.00000000	44.27288000	23.68356000
172.99998990	0.00000000	44.27288000	23.68356000
173.19998989	0.00000000	44.27288000	23.68356000
173.39998988	0.00000000	44.27288000	23.68356000
173.59998986	0.00000000	44.27288000	23.68356000
173.79998985	0.00000000	44.27288000	23.68356000
173.99998984	0.00000000	44.27288000	23.68356000
174.19998983	0.00000000	44.27288000	23.68356000
174.39998982	0.00000000	44.27288000	23.68356000
174.59998980	0.00000000	44.27288000	23.68356000
174.79998979	0.00000000	44.27288000	23.68356000
174.99998978	0.00000000	44.27288000	23.68356000
175.19998977	0.00000000	44.27288000	23.68356000
175.39998976	0.00000000	44.27288000	23.68356000
175.59998975	0.00000000	44.27288000	23.68356000
175.79998973	0.00000000	44.27288000	23.68356000
175.99998972	0.00000000	44.27288000	23.68356000
176.19998971	0.00000000	44.27288000	23.68356000
176.39998970	0.00000000	44.27288000	23.68356000
176.59998969	0.00000000	44.27288000	23.68356000
176.79998967	0.00000000	44.27288000	23.68356000
176.99998966	0.00000000	44.27288000	23.68356000
177.19998965	0.00000000	44.27288000	23.68356000
177.39998964	0.00000000	44.27288000	23.68356000
177.59998963	0.00000000	44.27288000	23.72662000
177.79998961	0.00000000	44.27288000	24.05881000
177.99998960	0.00000000	44.27288000	24.42790000
178.19998959	0.00000000	44.27288000	24.10187000
178.39998958	0.00000000	44.27288000	24.15108000
178.59998957	0.00000000	44.27288000	24.79700000
178.79998956	0.00000000	44.27288000	24.84621000
178.99998954	0.00000000	44.27288000	24.47712000
179.19998953	0.00000000	44.27288000	24.51402000
179.39998952	0.00000000	44.31594000	24.47712000
179.59998951	0.00000000	44.64813000	24.84621000
179.79998950	0.00000000	45.01722000	24.79700000
179.99998948	0.00000000	44.64813000	24.10187000
180.19998947	0.00000000	44.31594000	23.72662000
180.39998946	0.00000000	44.27288000	23.68356000
180.59998945	0.00000000	44.27288000	23.72662000
180.79998944	0.00000000	44.27288000	24.05881000
180.99998942	0.00000000	44.27288000	24.42790000
181.19998941	0.00000000	44.27288000	24.10187000
181.39998940	0.00000000	44.27288000	24.10187000
181.59998939	0.00000000	44.27288000	24.47096000
181.79998938	0.00000000	44.31594000	24.47712000
181.99998937	0.00000000	44.69119000	24.88927000
182.19998935	0.00000000	45.43553000	25.17224000
182.39998934	0.00000000	45.76156000	24.84621000
182.59998933	0.00000000	45.43553000	24.10187000
182.79998932	0.00000000	44.69119000	23.72662000
182.99998931	0.00000000	44.31594000	23.68356000
183.19998929	0.00000000	44.27288000	23.68356000
183.39998928	0.00000000	44.27288000	23.68356000
183.59998927	0.00000000	44.27288000	23.68356000
183.79998926	0.00000000	44.27288000	23.68356000
183.99998925	0.00000000	44.27288000	23.72662000
184.19998923	0.00000000	44.27288000	24.10187000
184.39998922	0.00000000	44.27288000	24.84621000
184.59998921	0.00000000	44.27288000	25.17224000
184.79998920	0.00000000	44.27288000	24.84621000
184.99998919	0.00000000	44.27288000	24.10187000
185.19998918	0.00000000	44.27288000	23.72662000
185.39998916	0.00000000	44.31594000	23.68356000
185.59998915	0.00000000	44.64813000	23.68356000
185.79998914	0.00000000	45.01722000	23.68356000
185.99998913	0.00000000	44.64813000	23.68356000
186.19998912	0.00000000	44.31594000	23.68356000
186.39998910	0.00000000	44.27288000	23.68356000
186.59998909	0.00000000	44.27288000	23.68356000
186.79998908	0.00000000	44.27288000	23.68356000
186.99998907	0.00000000	44.27288000	23.68356000
187.19998906	0.00000000	44.27288000	23.72662000
187.39998904	0.00000000	44.27288000	24.10187000
187.59998903	0.00000000	44.27288000	24.84621000
187.79998902	0.00000000	44.27288000	25.17224000
187.99998901	0.00000000	44.31594000	24.84621000
188.19998900	0.00000000	44.69119000	24.10187000
188.39998899	0.00000000	45.43553000	23.72662000
188.59998897	0.00000000	45.81078000	23.68356000
188.79998896	0.00000000	45.85384000	23.68356000
188.99998895	0.00000000	45.85384000	23.68356000
189.19998894	0.00000000	45.81078000	23.68356000
189.39998893	0.00000000	45.43553000	23.68356000
189.59998891	0.00000000	44.69119000	23.72662000
189.79998890	0.00000000	44.31594000	24.05881000
189.99998889	0.00000000	44.27288000	24.47096000
190.19998888	0.00000000	44.27288000	24.47712000
190.39998887	0.00000000	44.27288000	24.88927000
190.59998885	0.00000000	44.27288000	25.22145000
190.79998884	0.00000000	44.31594000	25.26452000
190.99998883	0.00000000	44.69119000	25.26452000
191.19998882	0.00000000	45.43553000	25.26452000
191.39998881	0.00000000	45.81078000	25.26452000
191.59998880	0.00000000	45.85384000	25.26452000
191.79998878	0.00000000	45.85384000	25.22145000
191.99998877	0.00000000	45.85384000	24.88927000
192.19998876	0.00000000	45.81078000	24.47712000
192.39998875	0.00000000	45.43553000	24.51402000
192.59998874	0.00000000	44.74040000	24.43405000
192.79998872	0.00000000	44.69119000	24.51402000
192.99998871	0.00000000	45.06028000	24.47712000
193.19998870	0.00000000	45.06644000	24.88927000
193.39998869	0.00000000	45.47859000	25.17224000
193.59998868	0.00000000	45.81078000	24.88927000
193.79998866	0.00000000	45.85384000	24.52018000
193.99998865	0.00000000	45.85384000	24.88927000
194.19998864	0.00000000	45.85384000	25.22145000
194.39998863	0.00000000	45.85384000	25.26452000
194.59998862	0.00000000	45.85384000	25.26452000
194.79998861	0.00000000	45.85384000	25.26452000
194.99998859	0.00000000	45.85384000	25.26452000
195.19998858	0.00000000	45.85384000	25.26452000
195.39998857	0.00000000	45.81078000	25.22145000
195.59998856	0.00000000	45.43553000	24.84621000
195.79998855	0.00000000	44.74040000	24.15108000
195.99998853	0.00000000	44.74040000	24.10187000
