Time	Channel A	Channel B	Channel C
(us)	(V)	(mV)	(mV)

-4.59999956	0.00000000	31.61909000	18.94685000
-4.39999957	0.00000000	31.66215000	18.94685000
-4.19999958	0.00000000	31.99434000	18.94685000
-3.99999959	0.00000000	32.36343000	18.94685000
-3.79999960	0.00000000	32.03740000	18.94685000
-3.59999962	0.00000000	32.03740000	18.94685000
-3.39999963	0.00000000	32.36343000	18.94685000
-3.19999964	0.00000000	31.99434000	18.94685000
-2.99999965	0.00000000	31.66215000	18.94685000
-2.79999966	0.00000000	31.66215000	18.98991000
-2.59999968	0.00000000	31.99434000	19.32210000
-2.39999969	0.00000000	32.36343000	19.69119000
-2.19999970	0.00000000	31.99434000	19.32210000
-1.99999971	0.00000000	31.66215000	18.98991000
-1.79999972	0.00000000	31.61909000	18.94685000
-1.59999973	0.00000000	31.61909000	18.94685000
-1.39999975	0.00000000	31.61909000	18.94685000
-1.19999976	0.00000000	31.66215000	18.94685000
-0.99999977	0.00000000	31.99434000	18.94685000
-0.79999978	0.00000000	32.36343000	18.94685000
-0.59999979	0.00000000	31.99434000	18.94685000
-0.39999981	0.00000000	31.71137000	18.94685000
-0.19999982	0.31803640	32.03740000	18.94685000
0.00000017	0.79601380	32.73252000	18.94685000
0.20000016	0.95533960	32.73252000	18.94685000
0.40000015	0.95533960	32.08661000	18.94685000
0.60000013	0.63668800	32.03740000	18.94685000
0.80000012	0.00000000	32.36343000	18.94685000
1.00000011	-0.79601380	31.99434000	18.94685000
1.20000010	-1.75196900	31.66215000	18.94685000
1.40000009	-2.54859700	31.66215000	18.94685000
1.60000008	-2.70792300	32.03740000	18.94685000
1.80000006	-2.22994600	32.78174000	18.94685000
2.00000005	-0.79601380	33.15699000	18.94685000
2.20000004	1.11466500	33.15699000	18.94685000
2.40000003	3.18590100	32.78174000	18.94685000
2.60000002	4.77854300	32.03740000	18.90379000
2.80000000	5.25652100	31.66215000	18.52854000
2.99999999	4.30056600	31.61909000	17.83341000
3.19999998	2.07062000	31.61909000	17.78420000
3.39999997	-1.11466500	31.61909000	18.15330000
3.59999996	-4.45989200	31.66215000	18.15945000
3.79999994	-7.00848900	32.03740000	18.57160000
3.99999993	-7.96444400	32.73252000	18.90379000
4.19999992	-7.00848900	32.78174000	18.94685000
4.39999991	-3.98191400	32.45571000	18.94685000
4.59999990	0.15871060	32.78174000	18.94685000
4.79999989	4.61921700	32.73252000	18.94685000
4.99999987	7.96444400	32.03740000	18.94685000
5.19999986	9.39837600	31.66215000	18.90379000
5.39999985	8.60174700	31.66215000	18.57160000
5.59999984	5.41584600	31.99434000	18.15945000
5.79999983	0.95533960	32.40649000	18.19636000
5.99999981	-3.82258900	32.41265000	18.15945000
6.19999980	-7.48646600	32.78174000	18.57160000
6.39999979	-9.39837600	32.78174000	18.90379000
6.59999978	-8.92039900	32.45571000	18.98991000
6.79999977	-6.21247500	32.82480000	19.36516000
6.99999975	-2.07062000	33.10777000	20.06029000
7.19999974	2.22994600	32.82480000	20.06029000
7.39999973	5.73449800	32.45571000	19.36516000
7.59999972	7.64579200	32.78174000	18.98991000
7.79999971	7.32714100	32.73252000	18.94685000
7.99999970	5.41584600	32.08661000	18.94685000
8.19999968	2.38927200	32.08661000	18.94685000
8.39999967	-0.79601380	32.78174000	18.94685000
8.59999966	-3.50393700	33.15699000	18.94685000
8.79999965	-4.93786900	33.20005000	18.94685000
8.99999964	-5.09719500	33.20005000	18.98991000
9.19999962	-3.98191400	33.20005000	19.36516000
9.39999961	-2.07062000	33.20005000	20.06029000
9.59999960	-0.15871060	33.20005000	20.06029000
9.79999959	1.43331700	33.20005000	19.36516000
9.99999958	2.38927200	33.20005000	18.98991000
10.19999956	2.54859700	33.20005000	18.98991000
10.39999955	2.07062000	33.20005000	19.32210000
10.59999954	1.11466500	33.20005000	19.69119000
10.79999953	0.31803640	33.20005000	19.32210000
10.99999952	-0.47736220	33.20005000	18.98991000
11.19999951	-0.79601380	33.20005000	18.98991000
11.39999949	-0.95533960	33.20005000	19.32210000
11.59999948	-0.95533960	33.20005000	19.69119000
11.79999947	-0.63668800	33.20005000	19.36516000
11.99999946	-0.31803640	33.20005000	19.36516000
12.19999945	-0.15871060	33.20005000	19.73425000
12.39999943	-0.15871060	33.20005000	19.69734000
12.59999942	0.00000000	33.20005000	19.77731000
12.79999941	0.00000000	33.20005000	19.74040000
12.99999940	0.00000000	33.20005000	20.10950000
13.19999939	0.00000000	33.20005000	20.06029000
13.39999937	0.00000000	33.20005000	19.36516000
13.59999936	0.00000000	33.20005000	18.98991000
13.79999935	0.00000000	33.20005000	18.94685000
13.99999934	-0.15871060	33.20005000	18.98991000
14.19999933	-0.15871060	33.20005000	19.32210000
14.39999932	-0.15871060	33.20005000	19.69119000
14.59999930	-0.15871060	33.24311000	19.36516000
14.79999929	0.00000000	33.57529000	19.36516000
14.99999928	0.00000000	33.94439000	19.69119000
15.19999927	0.00000000	33.57529000	19.32210000
15.39999926	0.00000000	33.24311000	18.98991000
15.59999924	0.00000000	33.15699000	18.94685000
15.79999923	0.00000000	32.78174000	18.94685000
15.99999922	0.00000000	32.08661000	18.94685000
16.19999921	-0.15871060	32.08661000	18.94685000
16.39999920	-0.15871060	32.78174000	18.94685000
16.59999919	-0.15871060	33.15699000	18.94685000
16.79999917	-0.15871060	33.24311000	18.94685000
16.99999916	-0.15871060	33.61835000	18.94685000
17.19999915	0.00000000	34.36884000	18.94685000
17.39999914	0.00000000	34.74409000	18.94685000
17.59999913	0.00000000	34.78716000	18.94685000
17.79999911	0.00000000	34.74409000	18.94685000
17.99999910	0.00000000	34.31963000	18.94685000
18.19999909	0.00000000	33.15699000	18.94685000
18.39999908	0.00000000	31.61909000	18.94685000
18.59999907	0.00000000	30.03814000	18.94685000
18.79999905	0.00000000	28.54946000	18.94685000
18.99999904	-0.15871060	27.80512000	18.94685000
19.19999903	0.00000000	28.59252000	18.94685000
19.39999902	0.00000000	30.54872000	18.94685000
19.59999901	0.00000000	33.66756000	18.94685000
19.79999900	0.00000000	37.53075000	18.94685000
19.99999898	0.00000000	41.01870000	18.94685000
20.19999897	0.00000000	43.71924000	18.94685000
20.39999896	0.00000000	44.78961000	18.94685000
20.59999895	0.00000000	43.16560000	18.98991000
20.79999894	0.00000000	38.50886000	19.32210000
20.99999892	0.00000000	31.53297000	19.69119000
21.19999891	0.00000000	23.80659000	19.32210000
21.39999890	-0.15871060	16.87377000	18.98991000
21.59999889	0.00000000	12.72761000	18.98991000
21.79999888	0.00000000	13.15207000	19.32210000
21.99999886	0.00000000	18.63312000	19.69119000
22.19999885	0.00000000	28.31570000	19.32210000
22.39999884	0.00000000	40.73573000	18.98991000
22.59999883	0.00000000	53.02657000	18.98991000
22.79999882	0.00000000	62.27854000	19.36516000
22.99999881	0.00000000	65.68036000	20.10950000
23.19999879	0.00000000	62.14320000	20.52780000
23.39999878	0.00000000	51.58710000	20.94611000
23.59999877	0.00000000	35.34695000	21.68430000
23.79999876	0.00000000	16.87377000	22.05955000
23.99999875	0.00000000	1.05807100	22.05955000
24.19999873	0.00000000	-8.15698700	21.68430000
24.39999872	0.00000000	-8.43380800	20.90305000
24.59999871	0.00000000	1.65477300	20.10950000
24.79999870	0.00000000	20.12795000	18.85458000
24.99999869	0.00000000	42.22441000	16.99065000
25.19999867	0.00000000	63.44734000	15.08981000
25.39999866	0.00000000	79.21382000	14.34547000
25.59999865	0.00000000	84.57185000	14.72072000
25.79999864	0.00000000	78.42642000	16.33858000
25.99999863	0.00000000	62.10014000	19.45743000
26.19999862	0.00000000	38.55192000	23.68356000
26.39999860	0.00000000	13.10900000	27.90969000
26.59999859	0.00000000	-7.69562000	30.93627000
26.79999858	0.00000000	-18.94685000	31.71752000
26.99999857	0.00000000	-18.15945000	29.73056000
27.19999856	0.00000000	-5.82554100	25.44906000
27.39999854	0.00000000	15.42815000	18.81152000
27.59999853	0.00000000	40.50812000	11.14050000
27.79999852	-0.15871060	63.68110000	4.17691900
27.99999851	0.00000000	79.54601000	-0.38139760
28.19999850	0.00000000	84.57185000	-1.11958700
28.39999848	0.00000000	78.10039000	2.81742100
28.59999847	0.00000000	61.90944000	10.99901000
28.79999846	0.00000000	40.69267000	22.57013000
28.99999845	0.00000000	18.96531000	34.83022000
29.19999844	0.00000000	1.19340500	44.13140000
29.39999843	0.00000000	-8.90132800	48.73277000
29.59999841	0.00000000	-9.31963500	47.52091000
29.79999840	0.00000000	-0.47982280	39.72071000
29.99999839	0.00000000	15.29281000	26.98080000
30.19999838	0.00000000	33.85827000	11.51575000
30.39999837	0.00000000	50.93504000	-3.11884800
30.59999835	0.00000000	63.72416000	-13.52731000
30.79999834	0.00000000	69.54355000	-17.33514000
30.99999833	0.00000000	67.31053000	-13.05979000
31.19999832	0.00000000	58.46457000	-1.49483300
31.39999831	0.00000000	45.30019000	14.76378000
31.59999829	0.00000000	30.59178000	32.51722000
31.79999828	0.00000000	17.47047000	47.93922000
31.99999827	0.00000000	8.91978400	57.23425000
32.19999826	0.00000000	6.53912400	58.76599000
32.39999825	0.00000000	9.94094400	52.21457000
32.59999824	0.00000000	18.07948000	38.69341000
32.79999822	0.00000000	28.87549000	21.68430000
32.99999821	0.00000000	40.08981000	4.26304100
33.19999820	0.00000000	48.97884000	-9.99630800
33.39999819	0.00000000	53.67864000	-17.75960000
33.59999818	0.00000000	53.72170000	-17.75960000
33.79999816	0.00000000	49.48942000	-10.03937000
33.99999815	0.00000000	42.18134000	3.84473400
34.19999814	0.00000000	33.66756000	20.43553000
34.39999813	0.00000000	25.98425000	36.32505000
34.59999812	0.00000000	20.92150000	48.26525000
34.79999810	0.00000000	19.75271000	53.70325000
34.99999809	0.00000000	22.03494000	51.42716000
35.19999808	0.00000000	27.42987000	42.55044000
35.39999807	0.00000000	34.27657000	29.02928000
35.59999806	0.00000000	40.08981000	13.65034000
35.79999805	0.00000000	43.58390000	0.54749010
35.99999803	0.00000000	44.37131000	-7.20964500
36.19999802	0.00000000	42.04601000	-8.41535400
36.39999801	0.00000000	37.48154000	-3.03272600
36.59999800	0.00000000	32.08661000	7.33267600
36.79999799	0.00000000	27.47293000	20.01722000
36.99999797	0.00000000	24.77854000	31.53912000
37.19999796	0.00000000	24.77854000	38.88410000
37.39999795	0.00000000	27.42987000	40.45890000
37.59999794	0.00000000	31.66830000	36.27584000
37.79999793	0.00000000	36.31890000	27.86663000
37.99999791	0.00000000	40.55733000	17.87647000
38.19999790	0.00000000	43.25172000	9.04281500
38.39999789	0.00000000	43.62696000	3.70324800
38.59999788	0.00000000	41.71998000	3.70324800
38.79999787	0.00000000	37.89985000	9.04281500
38.99999786	0.00000000	33.61835000	17.83341000
39.19999784	0.00000000	29.75517000	27.35605000
39.39999783	0.00000000	26.64247000	34.27657000
39.59999782	0.00000000	25.47367000	36.60802000
39.79999781	0.00000000	25.80585000	34.27657000
39.99999780	0.00000000	27.42987000	27.31299000
40.19999778	0.00000000	30.50566000	17.40895000
40.39999777	0.00000000	34.36884000	7.83710600
40.59999776	0.00000000	37.90600000	1.70398600
40.79999775	0.00000000	41.01870000	0.54749010
40.99999774	0.00000000	43.30093000	4.77362200
41.19999772	0.00000000	43.67618000	13.18282000
41.39999771	0.00000000	42.18134000	23.21604000
41.59999770	0.00000000	39.48696000	32.42495000
41.79999769	0.00000000	36.31890000	38.55192000
41.99999768	0.00000000	32.82480000	39.34547000
42.19999767	0.00000000	29.38607000	35.20546000
42.39999765	0.00000000	27.42987000	27.86663000
42.59999764	0.00000000	27.01156000	19.03912000
42.79999763	0.00000000	27.76206000	10.95595000
42.99999762	0.00000000	29.70595000	5.93626900
43.19999761	0.00000000	32.03740000	4.73056000
43.39999759	0.00000000	34.73794000	7.37573800
43.59999758	0.00000000	37.06324000	12.72146000
43.79999757	0.00000000	38.28125000	18.90379000
43.99999756	0.00000000	39.06250000	24.71087000
44.19999755	0.00000000	39.06250000	28.93701000
44.39999753	0.00000000	38.36737000	30.51796000
44.59999752	0.00000000	37.99213000	29.39837000
44.79999751	0.00000000	37.94907000	26.32874000
44.99999750	0.00000000	37.90600000	22.10261000
45.19999749	0.00000000	37.48154000	17.87647000
45.39999748	0.00000000	36.32505000	14.76378000
45.59999746	0.00000000	34.69488000	13.18282000
45.79999745	0.00000000	32.32037000	13.18282000
45.99999744	0.00000000	28.87549000	14.72072000
46.19999743	0.00000000	25.84892000	17.36589000
46.39999742	0.00000000	24.31102000	20.10950000
46.59999740	0.00000000	24.77854000	22.43479000
46.79999739	0.00000000	27.84818000	24.33563000
46.99999738	0.00000000	32.91707000	24.71087000
47.19999737	0.00000000	38.74261000	23.64050000
47.39999736	0.00000000	44.92495000	22.05955000
47.59999734	0.00000000	49.48942000	20.10950000
47.79999733	0.00000000	51.02116000	17.78420000
47.99999732	0.00000000	49.02190000	15.87721000
48.19999731	0.00000000	43.20866000	14.72072000
48.39999730	0.00000000	34.73794000	14.72072000
48.59999729	0.00000000	25.89813000	15.87721000
48.79999727	0.00000000	18.92224000	17.83341000
48.99999726	0.00000000	15.47121000	20.57087000
49.19999725	0.00000000	16.31397000	23.59129000
49.39999724	0.00000000	22.08415000	25.91043000
49.59999723	0.00000000	31.29306000	26.70398000
49.79999721	0.00000000	40.97564000	26.28568000
49.99999720	0.00000000	49.44020000	24.33563000
50.19999719	0.00000000	54.41683000	20.85384000
50.39999718	0.00000000	54.04773000	17.03986000
50.59999717	0.00000000	49.06496000	13.55807000
50.79999715	0.00000000	40.55733000	11.64493000
50.99999714	0.00000000	30.59178000	11.60187000
51.19999713	0.00000000	22.12721000	13.18282000
51.39999712	0.00000000	17.47047000	16.29552000
51.59999711	0.00000000	17.47047000	20.52780000
51.79999710	0.00000000	22.08415000	24.75394000
51.99999708	0.00000000	30.13041000	27.82357000
52.19999707	0.00000000	38.92716000	28.98007000
52.39999706	0.00000000	45.90305000	27.82357000
52.59999705	0.00000000	49.39714000	24.79700000
52.79999704	0.00000000	49.02190000	20.94611000
52.99999702	0.00000000	44.78961000	17.45817000
53.19999701	0.00000000	37.89985000	14.72072000
53.39999700	0.00000000	30.59178000	13.22589000
53.59999699	0.00000000	24.82160000	13.60113000
53.79999698	0.00000000	22.12721000	15.87721000
53.99999696	0.00000000	23.28986000	18.89764000
54.19999695	0.00000000	27.85433000	21.64124000
54.39999694	0.00000000	34.36884000	23.54823000
54.59999693	0.00000000	40.51427000	24.33563000
54.79999692	0.00000000	44.78961000	23.54823000
54.99999691	0.00000000	46.32751000	21.68430000
55.19999689	0.00000000	44.78961000	19.45743000
55.39999688	0.00000000	40.55733000	18.29478000
55.59999687	0.00000000	34.78716000	18.61466000
55.79999686	0.00000000	29.06004000	19.41437000
55.99999685	0.00000000	25.24606000	20.98917000
56.19999683	0.00000000	24.82160000	23.22219000
56.39999682	0.00000000	27.42987000	24.66781000
56.59999681	0.00000000	31.71137000	24.33563000
56.79999680	0.00000000	36.74335000	22.39173000
56.99999679	0.00000000	41.71998000	19.68504000
57.19999677	0.00000000	44.74655000	16.20325000
57.39999676	0.00000000	44.83267000	13.22589000
57.59999675	0.00000000	42.55659000	12.06939000
57.79999674	0.00000000	39.06250000	13.26895000
57.99999673	0.00000000	34.83022000	16.71383000
58.19999672	0.00000000	31.01624000	21.72736000
58.39999670	0.00000000	29.05389000	26.70398000
58.59999669	0.00000000	29.01082000	30.56102000
58.79999668	0.00000000	30.54872000	32.04970000
58.99999667	0.00000000	33.24926000	30.51181000
59.19999666	0.00000000	36.31890000	26.28568000
59.39999664	0.00000000	38.97638000	20.47859000
59.59999663	0.00000000	40.18209000	14.30241000
59.79999662	0.00000000	39.81299000	8.95669300
59.99999661	0.00000000	38.69341000	6.30536400
60.19999660	0.00000000	36.74335000	7.46801100
60.39999658	0.00000000	34.87328000	12.06939000
60.59999657	0.00000000	33.66756000	18.98991000
60.79999656	0.00000000	33.29232000	26.28568000
60.99999655	0.00000000	33.66756000	32.09276000
61.19999654	0.00000000	34.83022000	35.16240000
61.39999653	0.00000000	36.32505000	34.78716000
61.59999651	0.00000000	37.48154000	30.88705000
61.79999650	0.00000000	37.90600000	24.37869000
61.99999649	0.00000000	37.85679000	16.67077000
62.19999648	0.00000000	37.06324000	10.11319000
62.39999647	0.00000000	35.16240000	5.84399600
62.59999645	0.00000000	33.29232000	4.73056000
62.79999644	0.00000000	32.12967000	7.41879900
62.99999643	0.00000000	32.12967000	13.18282000
63.19999642	0.00000000	33.24926000	20.52780000
63.39999641	0.00000000	34.78716000	27.82357000
63.59999639	0.00000000	36.36811000	33.21235000
63.79999638	0.00000000	37.90600000	35.16240000
63.99999637	0.00000000	39.01944000	33.67372000
64.19999636	0.00000000	39.01944000	29.40452000
64.39999635	0.00000000	37.90600000	23.26525000
64.59999634	0.00000000	36.36811000	16.71383000
64.79999632	0.00000000	34.78716000	11.64493000
64.99999631	0.00000000	33.29232000	8.53223400
65.19999630	0.00000000	32.50492000	7.75098400
65.39999629	0.00000000	32.86786000	9.65182000
65.59999628	0.00000000	33.61835000	13.09670000
65.79999626	0.00000000	34.83022000	17.40895000
65.99999625	0.00000000	36.32505000	22.01033000
66.19999624	0.00000000	37.43848000	25.91043000
66.39999623	0.00000000	37.48154000	28.28494000
66.59999622	0.00000000	36.70029000	29.44759000
66.79999620	0.00000000	35.57455000	29.07234000
66.99999619	0.00000000	34.04282000	27.17150000
67.19999618	0.00000000	33.29232000	24.84621000
67.39999617	0.00000000	33.29232000	22.05955000
67.59999616	0.00000000	34.12894000	18.94685000
67.79999615	0.00000000	36.41117000	15.83415000
67.99999613	0.00000000	39.06250000	13.13976000
68.19999612	0.00000000	40.97564000	11.55881000
68.39999611	0.00000000	41.76304000	11.18356000
68.59999610	0.00000000	40.93258000	12.02018000
68.79999609	0.00000000	38.64419000	14.76378000
68.99999607	0.00000000	35.11319000	18.98991000
69.19999606	0.00000000	31.29306000	23.68356000
69.39999605	0.00000000	27.84818000	28.32800000
69.59999604	0.00000000	26.35950000	32.14198000
69.79999603	0.00000000	27.47293000	33.63066000
69.99999601	0.00000000	30.59178000	32.14198000
70.19999600	0.00000000	35.24852000	28.28494000
70.39999599	0.00000000	40.64345000	23.21604000
70.59999598	0.00000000	45.25713000	17.45817000
70.79999597	0.00000000	47.95152000	12.44464000
70.99999596	0.00000000	47.95152000	9.69488100
71.19999594	0.00000000	45.25713000	8.91363100
71.39999593	0.00000000	40.55733000	10.53765000
71.59999592	0.00000000	34.41191000	14.72072000
71.79999591	0.00000000	28.27264000	20.10950000
71.99999590	0.00000000	24.40330000	25.12918000
72.19999588	0.00000000	23.19759000	28.98007000
72.39999587	0.00000000	24.77854000	30.51796000
72.59999586	0.00000000	29.01082000	29.44759000
72.79999585	0.00000000	34.78716000	26.75320000
72.99999584	0.00000000	40.60039000	23.26525000
73.19999582	0.00000000	45.25713000	19.45743000
73.39999581	0.00000000	47.95152000	16.75689000
73.59999580	0.00000000	47.90846000	15.92027000
73.79999579	0.00000000	44.88189000	16.29552000
73.99999578	0.00000000	39.90526000	17.83341000
74.19999577	0.00000000	34.87328000	20.06029000
74.39999575	0.00000000	30.59178000	21.54897000
74.59999574	0.00000000	27.89739000	21.59203000
74.79999573	0.00000000	27.47293000	20.47859000
74.99999572	0.00000000	28.96776000	18.98991000
75.19999571	0.00000000	31.71137000	17.83341000
75.39999569	0.00000000	35.16240000	17.50123000
75.59999568	0.00000000	38.64419000	18.25172000
75.79999567	0.00000000	40.93258000	20.19562000
75.99999566	0.00000000	41.76304000	22.47785000
76.19999565	0.00000000	41.01870000	24.84621000
76.39999563	0.00000000	39.53002000	26.66092000
76.59999562	0.00000000	37.94907000	27.07308000
76.79999561	0.00000000	36.41117000	25.45521000
76.99999560	0.00000000	35.25467000	22.37943000
77.19999559	0.00000000	34.87943000	17.74114000
77.39999558	0.00000000	35.20546000	13.22589000
77.59999556	0.00000000	35.94980000	10.48843000
77.79999555	0.00000000	36.27584000	10.07013000
77.99999554	0.00000000	35.94980000	11.65108000
78.19999553	0.00000000	35.20546000	15.18209000
78.39999552	0.00000000	34.78716000	20.52780000
78.59999550	0.00000000	34.45497000	25.91043000
78.79999549	0.00000000	34.46112000	29.77362000
78.99999548	0.00000000	35.61762000	31.71752000
79.19999547	0.00000000	36.78642000	30.97933000
79.39999546	0.00000000	38.36737000	28.28494000
79.59999544	0.00000000	40.27436000	24.37869000
79.79999543	0.00000000	41.39394000	19.36516000
79.99999542	0.00000000	41.76304000	14.76378000
80.19999541	0.00000000	40.55733000	11.65108000
80.39999540	0.00000000	37.90600000	10.48843000
80.59999539	0.00000000	34.83022000	11.60187000
80.79999537	0.00000000	32.12967000	14.29626000
80.99999536	0.00000000	30.59178000	17.78420000
81.19999535	0.00000000	30.54872000	21.64124000
81.39999534	0.00000000	31.75443000	24.75394000
81.59999533	0.00000000	34.04282000	26.75320000
81.79999531	0.00000000	37.15551000	27.90969000
81.99999530	0.00000000	39.81299000	27.90969000
82.19999529	0.00000000	41.80610000	26.79626000
82.39999528	0.00000000	42.51353000	25.21530000
82.59999527	0.00000000	41.76304000	23.22219000
82.79999525	0.00000000	39.48696000	20.52780000
82.99999524	0.00000000	36.83563000	17.83341000
83.19999523	0.00000000	34.87328000	15.83415000
83.39999522	0.00000000	33.66756000	14.29626000
83.59999521	0.00000000	33.29232000	13.55807000
83.79999520	0.00000000	33.66756000	14.34547000
83.99999518	0.00000000	34.83022000	16.29552000
84.19999517	0.00000000	36.32505000	19.40822000
84.39999516	0.00000000	37.48154000	23.26525000
84.59999515	0.00000000	37.90600000	26.75320000
84.79999514	0.00000000	37.94907000	29.44759000
84.99999512	0.00000000	37.94907000	30.56102000
85.19999511	0.00000000	37.94907000	29.39837000
85.39999510	0.00000000	37.94907000	26.32874000
85.59999509	0.00000000	37.94907000	22.10261000
85.79999508	0.00000000	37.94907000	17.83341000
85.99999506	0.00000000	37.94907000	14.34547000
86.19999505	0.00000000	37.90600000	12.02018000
86.39999504	0.00000000	37.48154000	11.69414000
86.59999503	0.00000000	36.36811000	13.60113000
86.79999502	0.00000000	35.25467000	17.45817000
86.99999501	0.00000000	34.83022000	22.05955000
87.19999499	0.00000000	34.78716000	26.32874000
87.39999498	0.00000000	34.83022000	29.39837000
87.59999497	0.00000000	35.25467000	30.51796000
87.79999496	0.00000000	36.41117000	28.98007000
87.99999495	0.00000000	37.90600000	25.17224000
88.19999493	0.00000000	39.06250000	20.57087000
88.39999492	0.00000000	39.48696000	16.29552000
88.59999491	0.00000000	39.48696000	13.22589000
88.79999490	0.00000000	39.06250000	12.11245000
88.99999489	0.00000000	37.90600000	13.64419000
89.19999487	0.00000000	36.41117000	17.45817000
89.39999486	0.00000000	35.25467000	22.05955000
89.59999485	0.00000000	34.83022000	26.32874000
89.79999484	0.00000000	34.83022000	29.35531000
89.99999483	0.00000000	35.20546000	30.14272000
90.19999482	0.00000000	35.99286000	28.24188000
90.39999480	0.00000000	36.74335000	24.79700000
90.59999479	0.00000000	37.53075000	20.52780000
90.79999478	0.00000000	37.90600000	16.29552000
90.99999477	0.00000000	37.94907000	13.26895000
91.19999476	0.00000000	37.94907000	12.48770000
91.39999474	0.00000000	37.94907000	14.38853000
91.59999473	0.00000000	37.94907000	17.87647000
91.79999472	0.00000000	37.94907000	22.47785000
91.99999471	0.00000000	37.94907000	27.07308000
92.19999470	0.00000000	37.94907000	29.73056000
92.39999468	0.00000000	37.90600000	30.14272000
92.59999467	0.00000000	37.53075000	27.82357000
92.79999466	0.00000000	36.74335000	23.64050000
92.99999465	0.00000000	35.99286000	18.98991000
93.19999464	0.00000000	35.16240000	14.76378000
93.39999463	0.00000000	34.45497000	12.11245000
93.59999461	0.00000000	34.04282000	12.11245000
93.79999460	0.00000000	34.45497000	14.76378000
93.99999459	0.00000000	35.25467000	18.98991000
94.19999458	0.00000000	36.87869000	23.59129000
94.39999457	0.00000000	39.48696000	27.40526000
94.59999455	0.00000000	41.76304000	28.93701000
94.79999454	0.00000000	42.59965000	27.86663000
94.99999453	0.00000000	42.59965000	25.17224000
95.19999452	0.00000000	41.71998000	21.68430000
95.39999451	0.00000000	39.01944000	17.83341000
95.59999449	0.00000000	35.24852000	14.80684000
95.79999448	0.00000000	32.12967000	13.65034000
95.99999447	0.00000000	30.17347000	14.76378000
96.19999446	0.00000000	29.42913000	17.41511000
96.39999445	0.00000000	30.59178000	20.52780000
96.59999444	0.00000000	33.29232000	23.59129000
96.79999442	0.00000000	36.78642000	25.86737000
96.99999441	0.00000000	40.69267000	26.28568000
97.19999440	0.00000000	44.13755000	25.17224000
97.39999439	0.00000000	46.41363000	23.26525000
97.59999438	0.00000000	46.41363000	20.94611000
97.79999436	0.00000000	44.13755000	19.03912000
97.99999435	0.00000000	40.69267000	17.83341000
98.19999434	0.00000000	36.78642000	17.50123000
98.39999433	0.00000000	33.29232000	18.20251000
98.59999432	0.00000000	30.54872000	19.73425000
98.79999430	0.00000000	29.05389000	20.85384000
98.99999429	0.00000000	29.42913000	21.68430000
99.19999428	0.00000000	31.75443000	22.05955000
99.39999427	0.00000000	35.20546000	22.10261000
99.59999426	0.00000000	39.06250000	22.10261000
99.79999425	0.00000000	42.18134000	22.14567000
99.99999423	0.00000000	44.13755000	22.52091000
100.19999422	0.00000000	44.92495000	23.30832000
100.39999421	0.00000000	44.13755000	24.01575000
100.59999420	0.00000000	42.22441000	24.37869000
100.79999419	0.00000000	39.48696000	23.59129000
100.99999417	0.00000000	36.41117000	22.10261000
101.19999416	0.00000000	33.66756000	20.52780000
101.39999415	0.00000000	31.75443000	18.94685000
101.59999414	0.00000000	30.96703000	17.45817000
101.79999413	0.00000000	31.75443000	16.71383000
101.99999411	0.00000000	33.61835000	17.50123000
102.19999410	0.00000000	35.99286000	19.40822000
102.39999409	0.00000000	38.32431000	22.10261000
102.59999408	0.00000000	40.64345000	24.79700000
102.79999407	0.00000000	42.18134000	26.75320000
102.99999406	0.00000000	42.59965000	27.90969000
103.19999404	0.00000000	42.22441000	27.86663000
103.39999403	0.00000000	41.06791000	26.32874000
103.59999402	0.00000000	39.48696000	23.64050000
103.79999401	0.00000000	37.53075000	20.52780000
103.99999400	0.00000000	35.24852000	17.45817000
104.19999398	0.00000000	33.75369000	15.18209000
104.39999397	0.00000000	33.66756000	14.80684000
104.59999396	0.00000000	34.41191000	16.29552000
104.79999395	0.00000000	35.25467000	18.98991000
104.99999394	0.00000000	36.78642000	22.05955000
105.19999392	0.00000000	38.69341000	24.75394000
105.39999391	0.00000000	39.86220000	26.32874000
105.59999390	0.00000000	40.64345000	26.70398000
105.79999389	0.00000000	40.60039000	25.91043000
105.99999388	0.00000000	39.48696000	23.64050000
106.19999387	0.00000000	37.99213000	20.98917000
106.39999385	0.00000000	36.83563000	19.03912000
106.59999384	0.00000000	36.41117000	17.83341000
106.79999383	0.00000000	36.36811000	17.50123000
106.99999382	0.00000000	36.41117000	18.25172000
107.19999381	0.00000000	36.83563000	20.15256000
107.39999379	0.00000000	37.94907000	22.05955000
107.59999378	0.00000000	39.06250000	23.59129000
107.79999377	0.00000000	39.48696000	24.37869000
107.99999376	0.00000000	39.48696000	23.96653000
108.19999375	0.00000000	39.06250000	22.84695000
108.39999374	0.00000000	37.94907000	20.94611000
108.59999372	0.00000000	36.78642000	19.41437000
108.79999371	0.00000000	36.03592000	18.61466000
108.99999370	0.00000000	35.62377000	18.20251000
109.19999369	0.00000000	36.03592000	18.66388000
109.39999368	0.00000000	36.78642000	19.78346000
109.59999366	0.00000000	37.94907000	21.68430000
109.79999365	0.00000000	39.06250000	23.17298000
109.99999364	0.00000000	39.48696000	23.64050000
110.19999363	0.00000000	39.53002000	23.64050000
110.39999362	0.00000000	39.48696000	23.21604000
110.59999360	0.00000000	39.06250000	22.05955000
110.79999359	0.00000000	37.94907000	20.57087000
110.99999358	0.00000000	36.83563000	19.36516000
111.19999357	0.00000000	36.41117000	18.57160000
111.39999356	0.00000000	36.41117000	17.83341000
111.59999355	0.00000000	36.78642000	17.87647000
111.79999353	0.00000000	37.53075000	18.94685000
111.99999352	0.00000000	37.94907000	20.10950000
112.19999351	0.00000000	38.36737000	20.90305000
112.39999350	0.00000000	39.11171000	21.72736000
112.59999349	0.00000000	39.43774000	22.47785000
112.79999347	0.00000000	39.11171000	23.26525000
112.99999346	0.00000000	38.36737000	23.59129000
113.19999345	0.00000000	37.99213000	23.26525000
113.39999344	0.00000000	37.94907000	22.47785000
113.59999343	0.00000000	37.94907000	21.72736000
113.79999341	0.00000000	37.94907000	20.94611000
113.99999340	0.00000000	37.94907000	20.57087000
114.19999339	0.00000000	37.94907000	20.52780000
114.39999338	0.00000000	37.94907000	20.52780000
114.59999337	0.00000000	37.94907000	20.52780000
114.79999336	0.00000000	37.94907000	20.52780000
114.99999334	0.00000000	37.94907000	20.52780000
115.19999333	0.00000000	37.94907000	20.52780000
115.39999332	0.00000000	37.94907000	20.57087000
115.59999331	0.00000000	37.94907000	20.94611000
115.79999330	0.00000000	37.94907000	21.72736000
115.99999328	0.00000000	37.94907000	22.47785000
116.19999327	0.00000000	37.94907000	23.26525000
116.39999326	0.00000000	37.94907000	23.64050000
116.59999325	0.00000000	37.94907000	23.68356000
116.79999324	0.00000000	37.94907000	23.64050000
116.99999322	-0.15871060	37.94907000	23.26525000
117.19999321	0.00000000	37.99213000	22.47785000
117.39999320	0.00000000	38.36737000	21.72736000
117.59999319	0.00000000	39.15477000	20.90305000
117.79999318	0.00000000	39.90526000	20.15256000
117.99999317	0.00000000	40.64345000	19.41437000
118.19999315	0.00000000	40.64345000	19.45743000
118.39999314	0.00000000	39.90526000	20.52780000
118.59999313	0.00000000	39.15477000	21.68430000
118.79999312	0.00000000	38.32431000	22.47785000
118.99999311	0.00000000	37.57381000	23.26525000
119.19999309	0.00000000	36.78642000	23.64050000
119.39999308	0.00000000	36.41117000	23.68356000
119.59999307	0.00000000	36.41117000	23.64050000
119.79999306	0.00000000	36.83563000	23.26525000
119.99999305	0.00000000	37.99213000	22.52091000
120.19999303	0.00000000	39.48696000	22.10261000
120.39999302	0.00000000	40.64345000	21.68430000
120.59999301	0.00000000	41.06791000	20.94611000
120.79999300	0.00000000	41.11097000	20.57087000
120.99999299	0.00000000	41.06791000	20.52780000
121.19999298	0.00000000	40.64345000	20.52780000
121.39999296	0.00000000	39.48696000	20.57087000
121.59999295	0.00000000	37.99213000	20.94611000
121.79999294	0.00000000	36.83563000	21.68430000
121.99999293	0.00000000	36.41117000	22.05955000
122.19999292	0.00000000	36.36811000	22.10261000
122.39999290	0.00000000	36.41117000	22.10261000
122.59999289	0.00000000	36.83563000	22.10261000
122.79999288	0.00000000	37.94907000	22.10261000
122.99999287	0.00000000	39.11171000	22.10261000
123.19999286	0.00000000	39.90526000	22.10261000
123.39999284	0.00000000	40.69267000	22.10261000
123.59999283	0.00000000	41.06791000	22.05955000
123.79999282	0.00000000	41.06791000	21.68430000
123.99999281	0.00000000	40.64345000	20.94611000
124.19999280	0.00000000	39.53002000	20.57087000
124.39999279	0.00000000	38.36737000	20.52780000
124.59999277	0.00000000	37.53075000	20.52780000
124.79999276	0.00000000	36.41117000	20.52780000
124.99999275	0.00000000	35.67298000	20.57087000
125.19999274	0.00000000	35.99286000	20.94611000
125.39999273	0.00000000	36.36811000	21.68430000
125.59999271	0.00000000	36.78642000	22.05955000
125.79999270	0.00000000	37.57381000	22.10261000
125.99999269	0.00000000	38.36737000	22.10261000
126.19999268	0.00000000	39.53002000	22.10261000
126.39999267	0.00000000	40.64345000	22.10261000
126.59999265	0.00000000	41.06791000	22.05955000
126.79999264	0.00000000	41.06791000	21.68430000
126.99999263	0.00000000	40.64345000	20.94611000
127.19999262	0.00000000	39.48696000	20.57087000
127.39999261	0.00000000	37.99213000	20.52780000
127.59999260	0.00000000	36.83563000	20.52780000
127.79999258	0.00000000	36.41117000	20.57087000
127.99999257	0.00000000	36.41117000	20.94611000
128.19999256	0.00000000	36.83563000	21.68430000
128.39999255	0.00000000	37.94907000	22.05955000
128.59999254	0.00000000	39.11171000	22.10261000
128.79999252	0.00000000	39.90526000	22.10261000
128.99999251	0.00000000	40.69267000	22.10261000
129.19999250	0.00000000	41.01870000	22.10261000
129.39999249	0.00000000	40.69267000	22.10261000
129.59999248	0.00000000	39.90526000	22.05955000
129.79999246	0.00000000	39.11171000	21.72736000
129.99999245	0.00000000	37.94907000	21.36442000
130.19999244	0.00000000	36.87869000	21.72736000
130.39999243	0.00000000	36.83563000	22.05955000
130.59999242	0.00000000	37.57381000	22.10261000
130.79999241	0.00000000	38.32431000	22.10261000
130.99999239	0.00000000	39.15477000	22.10261000
131.19999238	0.00000000	39.90526000	22.10261000
131.39999237	0.00000000	40.69267000	22.10261000
131.59999236	0.00000000	41.01870000	22.05955000
131.79999235	0.00000000	40.69267000	21.68430000
131.99999233	0.00000000	39.90526000	20.94611000
132.19999232	0.00000000	39.15477000	20.57087000
132.39999231	0.00000000	38.36737000	20.57087000
132.59999230	0.00000000	37.99213000	20.94611000
132.79999229	0.00000000	37.94907000	21.68430000
132.99999227	0.00000000	37.99213000	22.10261000
133.19999226	0.00000000	38.36737000	22.52091000
133.39999225	0.00000000	39.11171000	23.26525000
133.59999224	0.00000000	39.48696000	23.64050000
133.79999223	0.00000000	39.53002000	23.64050000
133.99999222	0.00000000	39.53002000	23.26525000
134.19999220	0.00000000	39.48696000	22.47785000
134.39999219	0.00000000	39.15477000	21.72736000
134.59999218	0.00000000	38.78568000	20.94611000
134.79999217	0.00000000	39.15477000	20.57087000
134.99999216	0.00000000	39.48696000	20.52780000
135.19999214	0.00000000	39.53002000	20.57087000
135.39999213	0.00000000	39.53002000	20.94611000
135.59999212	0.00000000	39.53002000	21.68430000
135.79999211	0.00000000	39.53002000	22.10261000
135.99999210	0.00000000	39.53002000	22.52091000
136.19999208	0.00000000	39.48696000	23.26525000
136.39999207	0.00000000	39.11171000	23.64050000
136.59999206	0.00000000	38.36737000	23.64050000
136.79999205	-0.15871060	38.04134000	23.26525000
136.99999204	0.00000000	38.36737000	22.52091000
137.19999203	0.00000000	39.11171000	22.10261000
137.39999201	0.00000000	39.53002000	21.68430000
137.59999200	0.00000000	39.94832000	20.94611000
137.79999199	0.00000000	40.69267000	20.57087000
137.99999198	0.00000000	41.01870000	20.52780000
138.19999197	0.00000000	40.69267000	20.52780000
138.39999195	-0.15871060	39.90526000	20.52780000
138.59999194	0.00000000	39.15477000	20.57087000
138.79999193	0.00000000	38.36737000	20.94611000
138.99999192	0.00000000	37.99213000	21.68430000
139.19999191	0.00000000	37.99213000	22.10261000
139.39999189	0.00000000	38.36737000	22.52091000
139.59999188	0.00000000	39.11171000	23.26525000
139.79999187	0.00000000	39.48696000	23.59129000
139.99999186	0.00000000	39.53002000	23.26525000
140.19999185	0.00000000	39.53002000	22.52091000
140.39999184	0.00000000	39.53002000	22.10261000
140.59999182	0.00000000	39.53002000	21.68430000
140.79999181	0.00000000	39.53002000	20.94611000
140.99999180	0.00000000	39.53002000	20.57087000
141.19999179	0.00000000	39.53002000	20.52780000
141.39999178	0.00000000	39.53002000	20.57087000
141.59999176	0.00000000	39.53002000	20.94611000
141.79999175	0.00000000	39.53002000	21.72736000
141.99999174	0.00000000	39.53002000	22.47785000
142.19999173	0.00000000	39.53002000	23.26525000
142.39999172	0.00000000	39.53002000	23.59129000
142.59999170	0.00000000	39.53002000	23.26525000
142.79999169	0.00000000	39.53002000	22.52091000
142.99999168	0.00000000	39.48696000	22.10261000
143.19999167	0.00000000	39.15477000	21.68430000
143.39999166	0.00000000	38.78568000	20.94611000
143.59999165	0.00000000	39.15477000	20.57087000
143.79999163	0.00000000	39.48696000	20.52780000
143.99999162	0.00000000	39.53002000	20.57087000
144.19999161	0.00000000	39.53002000	20.94611000
144.39999160	0.00000000	39.57308000	21.72736000
144.59999159	0.00000000	39.94832000	22.47785000
144.79999157	0.00000000	40.69267000	23.26525000
144.99999156	0.00000000	41.01870000	23.64050000
145.19999155	0.00000000	40.69267000	23.64050000
145.39999154	0.00000000	39.94832000	23.26525000
145.59999153	0.00000000	39.57308000	22.52091000
145.79999151	0.00000000	39.53002000	22.14567000
145.99999150	0.00000000	39.53002000	22.05955000
146.19999149	0.00000000	39.53002000	21.68430000
146.39999148	0.00000000	39.57308000	20.98917000
146.59999147	0.00000000	39.94832000	20.98917000
146.79999146	0.00000000	40.69267000	21.68430000
146.99999144	0.00000000	41.06791000	22.10261000
147.19999143	0.00000000	41.11097000	22.52091000
147.39999142	0.00000000	41.06791000	23.26525000
147.59999141	0.00000000	40.69267000	23.64050000
147.79999140	0.00000000	39.94832000	23.68356000
147.99999138	0.00000000	39.57308000	23.68356000
148.19999137	0.00000000	39.53002000	23.64050000
148.39999136	0.00000000	39.53002000	23.26525000
148.59999135	0.00000000	39.53002000	22.52091000
148.79999134	0.00000000	39.53002000	22.14567000
148.99999132	0.00000000	39.57308000	22.10261000
149.19999131	0.00000000	39.94832000	22.10261000
149.39999130	0.00000000	40.69267000	22.10261000
149.59999129	0.00000000	41.06791000	22.10261000
149.79999128	0.00000000	41.11097000	22.14567000
149.99999127	0.00000000	41.11097000	22.52091000
150.19999125	0.00000000	41.06791000	23.26525000
150.39999124	0.00000000	40.69267000	23.64050000
150.59999123	0.00000000	39.94832000	23.68356000
150.79999122	0.00000000	39.57308000	23.68356000
150.99999121	0.00000000	39.53002000	23.68356000
151.19999119	0.00000000	39.53002000	23.64050000
151.39999118	0.00000000	39.53002000	23.26525000
151.59999117	0.00000000	39.53002000	22.52091000
151.79999116	0.00000000	39.53002000	22.14567000
151.99999115	0.00000000	39.57308000	22.10261000
152.19999113	0.00000000	39.94832000	22.10261000
152.39999112	0.00000000	40.69267000	22.10261000
152.59999111	0.00000000	41.06791000	22.10261000
152.79999110	0.00000000	41.11097000	22.10261000
152.99999109	0.00000000	41.06791000	22.10261000
153.19999108	0.00000000	40.69267000	22.10261000
153.39999106	0.00000000	39.94832000	22.10261000
153.59999105	0.00000000	39.57308000	22.10261000
153.79999104	0.00000000	39.53002000	22.10261000
153.99999103	0.00000000	39.53002000	22.10261000
154.19999102	0.00000000	39.53002000	22.10261000
154.39999100	0.00000000	39.53002000	22.10261000
154.59999099	0.00000000	39.53002000	22.10261000
154.79999098	0.00000000	39.53002000	22.05955000
154.99999097	0.00000000	39.57308000	21.72736000
155.19999096	0.00000000	39.94832000	21.32136000
155.39999094	0.00000000	40.69267000	21.35827000
155.59999093	0.00000000	41.06791000	21.27214000
155.79999092	0.00000000	41.11097000	21.35827000
155.99999091	0.00000000	41.06791000	21.32136000
156.19999090	0.00000000	40.69267000	21.72736000
156.39999089	0.00000000	39.94832000	22.05955000
156.59999087	0.00000000	39.57308000	22.14567000
156.79999086	0.00000000	39.53002000	22.47785000
156.99999085	0.00000000	39.53002000	22.89001000
157.19999084	0.00000000	39.53002000	22.85310000
157.39999083	0.00000000	39.53002000	22.89001000
157.59999081	0.00000000	39.53002000	22.47785000
157.79999080	0.00000000	39.57308000	22.14567000
157.99999079	0.00000000	39.94832000	22.10261000
158.19999078	0.00000000	40.69267000	22.10261000
158.39999077	0.00000000	41.06791000	22.10261000
158.59999075	0.00000000	41.11097000	22.10261000
158.79999074	0.00000000	41.11097000	22.10261000
158.99999073	0.00000000	41.11097000	22.14567000
159.19999072	0.00000000	41.11097000	22.52091000
159.39999071	0.00000000	41.06791000	23.26525000
159.59999070	0.00000000	40.69267000	23.64050000
159.79999068	0.00000000	39.94832000	23.68356000
159.99999067	0.00000000	39.57308000	23.68356000
160.19999066	0.00000000	39.53002000	23.64050000
160.39999065	0.00000000	39.53002000	23.26525000
160.59999064	0.00000000	39.57308000	22.52091000
160.79999062	0.00000000	39.94832000	22.14567000
160.99999061	0.00000000	40.69267000	22.10261000
161.19999060	0.00000000	41.06791000	22.10261000
161.39999059	0.00000000	41.11097000	22.10261000
161.59999058	0.00000000	41.11097000	22.10261000
161.79999056	0.00000000	41.11097000	22.14567000
161.99999055	0.00000000	41.11097000	22.52091000
162.19999054	0.00000000	41.11097000	23.26525000
162.39999053	0.00000000	41.11097000	23.64050000
162.59999052	0.00000000	41.11097000	23.68356000
162.79999051	0.00000000	41.11097000	23.68356000
162.99999049	0.00000000	41.06791000	23.64050000
163.19999048	0.00000000	40.69267000	23.26525000
163.39999047	0.00000000	39.94832000	22.57013000
163.59999046	0.00000000	39.57308000	22.52091000
163.79999045	0.00000000	39.53002000	22.84695000
163.99999043	0.00000000	39.57308000	22.47785000
164.19999042	0.00000000	39.94832000	22.14567000
164.39999041	0.00000000	40.69267000	22.10261000
164.59999040	0.00000000	41.06791000	22.10261000
164.79999039	0.00000000	41.11097000	22.10261000
164.99999037	0.00000000	41.11097000	22.10261000
165.19999036	0.00000000	41.11097000	22.10261000
165.39999035	0.00000000	41.11097000	22.14567000
165.59999034	0.00000000	41.11097000	22.52091000
165.79999033	0.00000000	41.06791000	23.26525000
165.99999032	0.00000000	40.69267000	23.59129000
166.19999030	0.00000000	39.99754000	23.26525000
166.39999029	0.00000000	39.94832000	22.57013000
166.59999028	0.00000000	40.31742000	22.52091000
166.79999027	0.00000000	40.32357000	22.84695000
166.99999026	0.00000000	40.73573000	22.47785000
167.19999024	0.00000000	41.06791000	22.14567000
167.39999023	0.00000000	41.11097000	22.10261000
167.59999022	0.00000000	41.11097000	22.10261000
167.79999021	0.00000000	41.11097000	22.10261000
167.99999020	0.00000000	41.11097000	22.10261000
168.19999018	0.00000000	41.11097000	22.10261000
168.39999017	0.00000000	41.11097000	22.10261000
168.59999016	0.00000000	41.11097000	22.10261000
168.79999015	0.00000000	41.11097000	22.10261000
168.99999014	0.00000000	41.11097000	22.10261000
169.19999013	0.00000000	41.11097000	22.10261000
169.39999011	0.00000000	41.11097000	22.10261000
169.59999010	0.00000000	41.11097000	22.10261000
169.79999009	0.00000000	41.11097000	22.10261000
169.99999008	0.00000000	41.11097000	22.10261000
170.19999007	0.00000000	41.11097000	22.10261000
170.39999005	0.00000000	41.11097000	22.10261000
170.59999004	0.00000000	41.11097000	22.10261000
170.79999003	0.00000000	41.11097000	22.10261000
170.99999002	0.00000000	41.11097000	22.10261000
171.19999001	0.00000000	41.11097000	22.10261000
171.39998999	0.00000000	41.11097000	22.10261000
171.59998998	0.00000000	41.11097000	22.10261000
171.79998997	0.00000000	41.11097000	22.10261000
171.99998996	0.00000000	41.11097000	22.10261000
172.19998995	0.00000000	41.11097000	22.10261000
172.39998994	0.00000000	41.11097000	22.10261000
172.59998992	0.00000000	41.11097000	22.10261000
172.79998991	0.00000000	41.11097000	22.10261000
172.99998990	0.00000000	41.11097000	22.14567000
173.19998989	0.00000000	41.11097000	22.47785000
173.39998988	0.00000000	41.11097000	22.84695000
173.59998986	0.00000000	41.15403000	22.47785000
173.79998985	0.00000000	41.48622000	22.14567000
173.99998984	0.00000000	41.85531000	22.10261000
174.19998983	0.00000000	41.48622000	22.10261000
174.39998982	0.00000000	41.15403000	22.10261000
174.59998980	0.00000000	41.11097000	22.10261000
174.79998979	0.00000000	41.11097000	22.10261000
174.99998978	0.00000000	41.11097000	22.14567000
175.19998977	0.00000000	41.11097000	22.47785000
175.39998976	0.00000000	41.15403000	22.89001000
175.59998975	0.00000000	41.48622000	22.85310000
175.79998973	0.00000000	41.85531000	22.89001000
175.99998972	0.00000000	41.48622000	22.47785000
176.19998971	0.00000000	41.15403000	22.14567000
176.39998970	0.00000000	41.11097000	22.10261000
176.59998969	0.00000000	41.11097000	22.14567000
176.79998967	0.00000000	41.11097000	22.52091000
176.99998966	0.00000000	41.11097000	23.21604000
177.19998965	0.00000000	41.11097000	23.21604000
177.39998964	0.00000000	41.11097000	22.52091000
177.59998963	0.00000000	41.11097000	22.14567000
177.79998961	0.00000000	41.11097000	22.10261000
177.99998960	0.00000000	41.11097000	22.14567000
178.19998959	0.00000000	41.11097000	22.52091000
178.39998958	0.00000000	41.11097000	23.26525000
178.59998957	-0.15871060	41.11097000	23.64050000
178.79998956	0.00000000	41.11097000	23.68356000
178.99998954	0.00000000	41.11097000	23.68356000
179.19998953	0.00000000	41.11097000	23.68356000
179.39998952	0.00000000	41.11097000	23.64050000
179.59998951	0.00000000	41.11097000	23.26525000
179.79998950	0.00000000	41.15403000	22.57013000
179.99998948	0.00000000	41.48622000	22.57013000
180.19998947	0.00000000	41.85531000	23.21604000
180.39998946	0.00000000	41.48622000	23.21604000
180.59998945	0.00000000	41.15403000	22.57013000
180.79998944	0.00000000	41.11097000	22.57013000
180.99998942	0.00000000	41.11097000	23.26525000
181.19998941	0.00000000	41.11097000	23.64050000
181.39998940	0.00000000	41.11097000	23.68356000
181.59998939	0.00000000	41.11097000	23.68356000
181.79998938	0.00000000	41.11097000	23.68356000
181.99998937	0.00000000	41.11097000	23.68356000
182.19998935	0.00000000	41.15403000	23.68356000
182.39998934	0.00000000	41.48622000	23.64050000
182.59998933	0.00000000	41.89838000	23.26525000
182.79998932	0.00000000	41.90453000	22.52091000
182.99998931	0.00000000	42.27362000	22.14567000
183.19998929	0.00000000	42.22441000	22.10261000
183.39998928	0.00000000	41.57849000	22.10261000
183.59998927	0.00000000	41.52928000	22.14567000
183.79998926	0.00000000	41.89838000	22.52091000
183.99998925	0.00000000	41.86147000	23.26525000
184.19998923	0.00000000	41.89838000	23.64050000
184.39998922	0.00000000	41.48622000	23.68356000
184.59998921	0.00000000	41.15403000	23.68356000
184.79998920	0.00000000	41.11097000	23.68356000
184.99998919	0.00000000	41.11097000	23.68356000
185.19998918	0.00000000	41.15403000	23.64050000
185.39998916	0.00000000	41.48622000	23.26525000
185.59998915	0.00000000	41.85531000	22.47785000
185.79998914	0.00000000	41.48622000	21.77658000
185.99998913	0.00000000	41.20325000	21.36442000
186.19998912	0.00000000	41.48622000	21.72736000
186.39998910	0.00000000	41.85531000	22.05955000
186.59998909	0.00000000	41.48622000	22.10261000
186.79998908	0.00000000	41.15403000	22.10261000
186.99998907	0.00000000	41.11097000	22.14567000
187.19998906	0.00000000	41.11097000	22.52091000
187.39998904	0.00000000	41.11097000	23.26525000
187.59998903	0.00000000	41.11097000	23.64050000
187.79998902	0.00000000	41.11097000	23.68356000
187.99998901	0.00000000	41.11097000	23.68356000
188.19998900	-0.15871060	41.15403000	23.68356000
188.39998899	0.00000000	41.52928000	23.64050000
188.59998897	0.00000000	42.27362000	23.26525000
188.79998896	0.00000000	42.64886000	22.52091000
188.99998895	0.00000000	42.64886000	22.14567000
189.19998894	0.00000000	42.31668000	22.10261000
189.39998893	0.00000000	41.90453000	22.14567000
189.59998891	0.00000000	41.89838000	22.47785000
189.79998890	0.00000000	41.48622000	22.89001000
189.99998889	0.00000000	41.15403000	22.89616000
190.19998888	0.00000000	41.11097000	23.30832000
190.39998887	0.00000000	41.11097000	23.64050000
190.59998885	0.00000000	41.15403000	23.68356000
190.79998884	0.00000000	41.52928000	23.68356000
190.99998883	0.00000000	42.27362000	23.68356000
191.19998882	0.00000000	42.64886000	23.68356000
191.39998881	0.00000000	42.69193000	23.68356000
191.59998880	0.00000000	42.69193000	23.68356000
191.79998878	0.00000000	42.69193000	23.68356000
191.99998877	0.00000000	42.69193000	23.68356000
192.19998876	0.00000000	42.69193000	23.68356000
192.39998875	0.00000000	42.64886000	23.68356000
192.59998874	0.00000000	42.27362000	23.68356000
192.79998872	0.00000000	41.57849000	23.68356000
192.99998871	0.00000000	41.52928000	23.68356000
193.19998870	0.00000000	41.89838000	23.68356000
193.39998869	0.00000000	41.90453000	23.68356000
193.59998868	0.00000000	42.31668000	23.68356000
193.79998866	0.00000000	42.64886000	23.68356000
193.99998865	0.00000000	42.69193000	23.68356000
194.19998864	0.00000000	42.69193000	23.68356000
194.39998863	0.00000000	42.69193000	23.68356000
194.59998862	0.00000000	42.69193000	23.68356000
194.79998861	0.00000000	42.69193000	23.68356000
194.99998859	0.00000000	42.69193000	23.68356000
195.19998858	0.00000000	42.64886000	23.64050000
195.39998857	0.00000000	42.27362000	23.30832000
195.59998856	0.00000000	41.57849000	22.89616000
195.79998855	0.00000000	41.57849000	22.93307000
195.99998853	0.00000000	42.27362000	22.85310000
