Time	Channel A	Channel B	Channel C
(us)	(V)	(mV)	(mV)

-4.59999956	0.00000000	11.06668000	9.47342500
-4.39999957	0.00000000	11.06668000	9.47342500
-4.19999958	0.00000000	11.06668000	9.47342500
-3.99999959	0.00000000	11.06668000	9.47342500
-3.79999960	0.00000000	11.06668000	9.47342500
-3.59999962	0.00000000	11.06668000	9.43036400
-3.39999963	0.00000000	11.06668000	9.09817800
-3.19999964	0.00000000	11.06668000	8.72908400
-2.99999965	0.00000000	11.06668000	9.09817800
-2.79999966	0.00000000	11.06668000	9.43036400
-2.59999968	0.00000000	11.06668000	9.47342500
-2.39999969	0.00000000	11.06668000	9.47342500
-2.19999970	0.00000000	11.06668000	9.47342500
-1.99999971	0.00000000	11.06668000	9.47342500
-1.79999972	0.00000000	11.06668000	9.43036400
-1.59999973	0.00000000	11.06668000	9.09817800
-1.39999975	0.00000000	11.06668000	8.72908400
-1.19999976	0.00000000	11.06668000	9.09817800
-0.99999977	0.00000000	11.06668000	9.43036400
-0.79999978	0.00000000	11.06668000	9.47342500
-0.59999979	0.00000000	11.06668000	9.47342500
-0.39999981	0.15871060	11.06668000	9.47342500
-0.19999982	0.47736220	11.10974000	9.47342500
0.00000017	0.79601380	11.44193000	9.47342500
0.20000016	0.95533960	11.81102000	9.47342500
0.40000015	0.95533960	11.44193000	9.47342500
0.60000013	0.63668800	11.10974000	9.43036400
0.80000012	-0.15871060	11.06668000	9.09817800
1.00000011	-1.11466500	11.06668000	8.72908400
1.20000010	-1.91129400	11.06668000	9.09817800
1.40000009	-2.70792300	11.06668000	9.43036400
1.60000008	-2.70792300	11.06668000	9.47342500
1.80000006	-1.91129400	11.06668000	9.47342500
2.00000005	-0.47736220	11.06668000	9.47342500
2.20000004	1.59264300	11.06668000	9.47342500
2.40000003	3.66326300	11.06668000	9.47342500
2.60000002	5.09719500	11.06668000	9.43036400
2.80000000	5.25652100	11.06668000	9.05511800
2.99999999	3.98191400	11.06668000	8.31077700
3.19999998	1.59264300	11.06668000	7.93553100
3.39999997	-1.75196900	11.06668000	7.93553100
3.59999996	-5.09719500	11.06668000	8.31077700
3.79999994	-7.48646600	11.10974000	9.05511800
3.99999993	-7.96444400	11.48499000	9.43036400
4.19999992	-6.53112700	12.18012000	9.47342500
4.39999991	-3.18590100	12.22933000	9.47342500
4.59999990	1.11466500	11.86024000	9.47342500
4.79999989	5.41584600	11.85408000	9.47342500
4.99999987	8.44242100	11.44193000	9.43036400
5.19999986	9.55770200	11.10974000	9.05511800
5.39999985	8.12377000	11.06668000	8.31077700
5.59999984	4.61921700	11.06668000	7.93553100
5.79999983	0.00000000	11.06668000	7.89247000
5.99999981	-4.61921700	11.06668000	7.89247000
6.19999980	-8.12377000	11.06668000	7.93553100
6.39999979	-9.55770200	11.06668000	8.31077700
6.59999978	-8.44242100	11.10974000	9.05511800
6.79999977	-5.41584600	11.44193000	9.43036400
6.99999975	-1.27399100	11.81102000	9.43036400
7.19999974	3.02657500	11.48499000	9.14124000
7.39999973	6.21247500	11.48499000	9.06126900
7.59999972	7.64579200	11.81102000	9.41806000
7.79999971	7.16781500	11.44193000	8.64296200
7.99999970	4.93786900	11.10974000	7.98474400
8.19999968	1.75196900	11.06668000	7.93553100
8.39999967	-1.43331700	11.06668000	8.31077700
8.59999966	-3.98191400	11.06668000	9.00590400
8.79999965	-5.09719500	11.10974000	9.05511800
8.99999964	-4.93786900	11.44193000	8.72908400
9.19999962	-3.66326300	11.81102000	9.09817800
9.39999961	-1.75196900	11.44193000	9.43036400
9.59999960	0.31803640	11.10974000	9.47342500
9.79999959	1.75196900	11.06668000	9.47342500
9.99999958	2.38927200	11.06668000	9.47342500
10.19999956	2.38927200	11.06668000	9.47342500
10.39999955	1.91129400	11.06668000	9.47342500
10.59999954	0.95533960	11.06668000	9.47342500
10.79999953	0.15871060	11.06668000	9.47342500
10.99999952	-0.63668800	11.06668000	9.47342500
11.19999951	-0.95533960	11.06668000	9.47342500
11.39999949	-0.95533960	11.06668000	9.47342500
11.59999948	-0.95533960	11.06668000	9.47342500
11.79999947	-0.63668800	11.06668000	9.47342500
11.99999946	-0.31803640	11.06668000	9.47342500
12.19999945	-0.15871060	11.06668000	9.47342500
12.39999943	-0.15871060	11.06668000	9.47342500
12.59999942	0.00000000	11.06668000	9.47342500
12.79999941	0.00000000	11.06668000	9.47342500
12.99999940	0.00000000	11.06668000	9.47342500
13.19999939	0.00000000	11.06668000	9.47342500
13.39999937	0.00000000	11.06668000	9.47342500
13.59999936	0.00000000	11.06668000	9.47342500
13.79999935	-0.15871060	11.06668000	9.47342500
13.99999934	0.00000000	11.06668000	9.47342500
14.19999933	-0.15871060	11.06668000	9.47342500
14.39999932	-0.15871060	11.06668000	9.43036400
14.59999930	-0.15871060	11.06668000	9.09817800
14.79999929	0.00000000	11.06668000	8.72908400
14.99999928	0.00000000	11.06668000	9.09817800
15.19999927	0.00000000	11.06668000	9.43036400
15.39999926	0.00000000	11.06668000	9.47342500
15.59999924	0.00000000	11.06668000	9.47342500
15.79999923	0.00000000	11.06668000	9.47342500
15.99999922	0.00000000	11.06668000	9.47342500
16.19999921	0.00000000	11.06668000	9.47342500
16.39999920	-0.15871060	11.06668000	9.47342500
16.59999919	-0.15871060	11.10974000	9.47342500
16.79999917	-0.15871060	11.48499000	9.47342500
16.99999916	0.00000000	12.22933000	9.47342500
17.19999915	0.00000000	12.60458000	9.47342500
17.39999914	0.00000000	12.64764000	9.47342500
17.59999913	0.00000000	12.64764000	9.47342500
17.79999911	0.00000000	12.60458000	9.47342500
17.99999910	0.00000000	12.18012000	9.47342500
18.19999909	0.00000000	11.02362000	9.47342500
18.39999908	0.00000000	9.48572700	9.47342500
18.59999907	0.00000000	7.94783400	9.47342500
18.79999905	0.00000000	6.79133800	9.47342500
18.99999904	-0.15871060	6.41609200	9.47342500
19.19999903	0.00000000	6.87746000	9.47342500
19.39999902	0.00000000	8.83366100	9.47342500
19.59999901	0.00000000	12.31545000	9.47342500
19.79999900	0.00000000	16.18479000	9.43036400
19.99999898	0.00000000	20.04183000	9.09817800
20.19999897	0.00000000	22.69316000	8.72908400
20.39999896	0.00000000	23.02534000	9.09817800
20.59999895	0.00000000	20.65084000	9.43036400
20.79999894	0.00000000	15.21284000	9.47342500
20.99999892	-0.15871060	7.90477300	9.47342500
21.19999891	0.00000000	0.51058070	9.47342500
21.39999890	0.00000000	-5.63484200	9.47342500
21.59999889	0.00000000	-9.03051100	9.43036400
21.79999888	0.00000000	-7.82480200	9.09817800
21.99999886	0.00000000	-1.96235200	8.68602300
22.19999885	0.00000000	7.76328700	8.72293300
22.39999884	0.00000000	20.17716000	8.68602300
22.59999883	0.00000000	32.42495000	9.09817800
22.79999882	0.00000000	41.25861000	9.43036400
22.99999881	0.00000000	43.45472000	9.47342500
23.19999879	-0.15871060	38.05364000	9.51648500
23.39999878	0.00000000	25.63361000	9.89173200
23.59999877	0.00000000	8.97514600	10.62992000
23.79999876	0.00000000	-8.79675100	11.00517000
23.99999875	0.00000000	-23.77584000	11.00517000
24.19999873	0.00000000	-31.40994000	10.62992000
24.39999872	0.00000000	-29.41068000	9.84867000
24.59999871	0.00000000	-17.40280000	9.00590400
24.79999870	0.00000000	2.26993100	7.47416300
24.99999869	0.00000000	24.69857000	5.57332700
25.19999867	0.00000000	45.17101000	4.40452700
25.39999866	0.00000000	58.98745000	3.66633800
25.59999865	0.00000000	62.05708000	4.12770700
25.79999864	0.00000000	53.50024000	6.40378900
25.99999863	0.00000000	34.97785000	9.51648500
26.19999862	0.00000000	10.27928000	13.09670000
26.39999860	0.00000000	-14.01329000	17.27362000
26.59999859	0.00000000	-32.62180000	20.62008000
26.79999858	0.00000000	-41.46161000	20.99532000
26.99999857	0.00000000	-38.38583000	18.30093000
27.19999856	0.00000000	-24.05881000	13.23819000
27.39999854	0.00000000	-1.67938000	6.22539300
27.59999853	0.00000000	23.76968000	-1.44562000
27.79999852	0.00000000	45.77386000	-7.99089500
27.99999851	0.00000000	59.36269000	-11.42962000
28.19999850	0.00000000	62.10630000	-10.96826000
28.39999848	0.00000000	53.63558000	-5.90551100
28.59999847	0.00000000	36.28199000	3.38336600
28.79999846	0.00000000	14.27780000	14.62844000
28.99999845	0.00000000	-7.40034400	26.19955000
29.19999844	0.00000000	-24.01575000	35.34695000
29.39999843	0.00000000	-32.19734000	38.79183000
29.59999841	0.00000000	-30.33957000	35.72219000
29.79999840	0.00000000	-19.96186000	26.75935000
29.99999839	0.00000000	-3.72170300	13.19513000
30.19999838	0.00000000	14.83760000	-2.60211600
30.39999837	0.00000000	31.49606000	-16.81841000
30.59999835	0.00000000	43.12254000	-25.69513000
30.79999834	0.00000000	47.40403000	-27.27608000
30.99999833	0.00000000	43.63311000	-21.42593000
31.19999832	0.00000000	33.63066000	-9.01820900
31.39999831	0.00000000	20.09104000	7.98474400
31.59999829	0.00000000	5.76402500	25.68897000
31.79999828	0.00000000	-6.28690900	39.99754000
31.99999827	0.00000000	-14.01329000	47.76082000
32.19999826	0.00000000	-15.95718000	47.76082000
32.39999825	0.00000000	-11.35581000	39.95448000
32.59999824	0.00000000	-2.18996000	25.31373000
32.79999822	0.00000000	9.06742000	7.19734200
32.99999821	0.00000000	19.90650000	-9.81176100
33.19999820	0.00000000	28.42027000	-22.62549000
33.39999819	0.00000000	32.65256000	-28.80782000
33.59999818	0.00000000	31.53912000	-27.27608000
33.79999816	0.00000000	25.81201000	-18.35630000
33.99999815	0.00000000	17.39050000	-3.72170300
34.19999814	0.00000000	8.87672100	13.28125000
34.39999813	0.00000000	2.26993100	28.71555000
34.59999812	0.00000000	-1.63016700	39.57923000
34.79999810	0.00000000	-2.00541300	43.44242000
34.99999809	0.00000000	1.06422200	39.99754000
35.19999808	0.00000000	6.79133800	29.95817000
35.39999807	0.00000000	13.29970000	15.69882000
35.59999806	0.00000000	18.32554000	0.68897630
35.79999805	0.00000000	21.06914000	-11.66339000
35.99999803	0.00000000	21.06914000	-18.26402000
36.19999802	0.00000000	18.37475000	-18.31324000
36.39999801	0.00000000	13.76107000	-12.13091000
36.59999800	0.00000000	8.41535400	-1.02116100
36.79999799	0.00000000	4.18307100	11.65723000
36.99999797	0.00000000	2.22687000	22.44094000
37.19999796	0.00000000	2.60211600	29.02928000
37.39999795	0.00000000	5.33956700	29.77977000
37.59999794	0.00000000	9.90403500	24.84621000
37.79999793	0.00000000	14.88066000	15.64960000
37.99999791	0.00000000	18.41781000	5.33341500
38.19999790	0.00000000	20.37401000	-3.11884800
38.39999789	0.00000000	20.69390000	-7.30191900
38.59999788	0.00000000	18.37475000	-5.81323800
38.79999787	0.00000000	14.22859000	0.64591530
38.99999786	0.00000000	9.95324800	9.43036400
39.19999784	0.00000000	6.41609200	17.93184000
39.39999783	0.00000000	3.71555100	24.02190000
39.59999782	0.00000000	2.55290300	25.87352000
39.79999781	0.00000000	3.29724400	22.06570000
39.99999780	0.00000000	5.25344500	14.03174000
40.19999778	0.00000000	8.37229300	4.45374000
40.39999777	0.00000000	12.22933000	-4.36761800
40.59999776	0.00000000	15.71727000	-9.29502900
40.79999775	0.00000000	18.50394000	-8.96899500
40.99999774	0.00000000	20.37401000	-3.62942900
41.19999772	0.00000000	20.78617000	4.87204700
41.39999771	0.00000000	19.21137000	14.49311000
41.59999770	0.00000000	16.50467000	23.32062000
41.79999769	0.00000000	12.60458000	28.24803000
41.99999768	0.00000000	8.45841400	27.92200000
42.19999767	0.00000000	5.67175200	22.57628000
42.39999765	0.00000000	4.45989200	14.16708000
42.59999764	0.00000000	4.04773600	5.29035400
42.79999763	0.00000000	4.87819900	-2.04847400
42.99999762	0.00000000	6.79133800	-6.27460600
43.19999761	0.00000000	9.48572700	-6.36687900
43.39999759	0.00000000	12.18012000	-2.93430100
43.59999758	0.00000000	14.13632000	2.46063000
43.79999757	0.00000000	15.34203000	9.05511800
43.99999756	0.00000000	15.71727000	15.14518000
44.19999755	0.00000000	15.39124000	19.04527000
44.39999753	0.00000000	14.64690000	19.88189000
44.59999752	0.00000000	14.27165000	18.39321000
44.79999751	0.00000000	14.22859000	15.27436000
44.99999750	0.00000000	14.18553000	11.04823000
45.19999749	0.00000000	13.76107000	6.82209600
45.39999748	0.00000000	12.60458000	3.75246000
45.59999746	0.00000000	10.97441000	2.50369100
45.79999745	0.00000000	8.64911400	2.87278500
45.99999744	0.00000000	5.53641700	4.03543200
46.19999743	0.00000000	2.92199800	6.40378900
46.39999742	0.00000000	1.39640700	9.42421200
46.59999740	0.00000000	2.26993100	12.11860000
46.79999739	0.00000000	5.71481200	13.69956000
46.99999738	0.00000000	11.15896000	14.11786000
47.19999737	0.00000000	17.34744000	13.69956000
47.39999736	0.00000000	23.11762000	12.11860000
47.59999734	0.00000000	26.92544000	9.47342500
47.79999733	0.00000000	27.30069000	6.77903500
47.99999732	0.00000000	24.18799000	4.82283400
48.19999731	0.00000000	17.95029000	3.66633800
48.39999730	0.00000000	9.48572700	3.70939900
48.59999729	0.00000000	1.02116100	5.24729300
48.79999727	0.00000000	-5.16732200	7.93553100
48.99999726	0.00000000	-7.82480200	11.00517000
49.19999725	0.00000000	-5.86860200	13.69956000
49.39999724	0.00000000	0.68897630	15.27436000
49.59999723	0.00000000	9.95324800	15.69267000
49.79999721	0.00000000	19.95571000	15.23130000
49.99999720	0.00000000	28.04503000	13.28125000
50.19999719	0.00000000	31.86516000	9.79945900
50.39999718	0.00000000	30.73942000	5.98548200
50.59999717	0.00000000	24.60630000	2.54675200
50.79999715	0.00000000	15.76649000	0.97194880
50.99999714	0.00000000	6.45915300	1.33489200
51.19999713	0.00000000	-1.58710600	2.92199800
51.39999712	0.00000000	-5.81938900	6.40378900
51.59999711	0.00000000	-5.08120100	10.58686000
51.79999710	0.00000000	-0.09842519	14.11786000
51.99999708	0.00000000	7.99704600	16.81225000
52.19999707	0.00000000	16.79380000	17.88263000
52.39999706	0.00000000	23.67741000	16.39395000
52.59999705	0.00000000	26.46407000	12.96137000
52.79999704	0.00000000	24.93848000	9.09817800
52.99999702	0.00000000	20.31865000	5.24729300
53.19999701	0.00000000	12.97982000	2.59596400
53.39999700	0.00000000	5.38877900	2.12844500
53.59999699	0.00000000	-0.00615157	3.24803100
53.79999698	0.00000000	-1.58710600	5.19808000
53.99999696	0.00000000	0.68897630	7.89247000
54.19999695	0.00000000	5.67175200	10.53765000
54.39999694	0.00000000	12.22933000	12.11860000
54.59999693	0.00000000	18.32554000	12.49385000
54.79999692	0.00000000	22.18258000	11.74951000
54.99999691	0.00000000	22.60704000	9.84867000
55.19999689	0.00000000	19.95571000	7.98474400
55.39999688	0.00000000	15.29897000	6.82209600
55.59999687	0.00000000	9.52879000	6.82209600
55.79999686	0.00000000	4.18307100	7.98474400
55.99999685	0.00000000	1.10728300	9.89173200
56.19999683	0.00000000	1.10728300	12.16781000
56.39999682	0.00000000	4.13385800	13.61343000
56.59999681	0.00000000	9.11048200	13.23819000
56.79999680	0.00000000	14.13632000	10.91289000
56.99999679	0.00000000	18.37475000	7.51722400
57.19999677	0.00000000	20.69390000	4.03543200
57.39999676	0.00000000	20.32480000	1.75319900
57.59999675	0.00000000	18.04257000	1.01501000
57.79999674	0.00000000	14.18553000	2.59596400
57.99999673	0.00000000	9.99630800	6.44685000
58.19999672	0.00000000	6.87746000	11.42347000
58.39999670	0.00000000	5.29650500	16.43701000
58.59999669	0.00000000	5.29650500	19.88189000
58.79999668	0.00000000	6.83439900	20.99532000
58.99999667	0.00000000	9.52879000	19.04527000
59.19999666	0.00000000	12.55536000	14.07480000
59.39999664	0.00000000	14.92372000	7.89247000
59.59999663	0.00000000	16.04946000	1.71013800
59.79999662	0.00000000	16.08637000	-3.25418300
59.99999661	0.00000000	14.56078000	-5.11811000
60.19999660	0.00000000	12.69070000	-3.21112200
60.39999658	0.00000000	11.10974000	2.12844500
60.59999657	0.00000000	9.95324800	9.09817800
60.79999656	0.00000000	9.57800100	16.07406000
60.99999655	0.00000000	9.95324800	22.20103000
61.19999654	0.00000000	11.10974000	25.22145000
61.39999653	0.00000000	12.60458000	24.06496000
61.59999651	0.00000000	13.76107000	19.08834000
61.79999650	0.00000000	14.13632000	11.38041000
61.99999649	0.00000000	13.76107000	3.33415300
62.19999648	0.00000000	12.60458000	-3.25418300
62.39999647	0.00000000	11.06668000	-6.74212600
62.59999645	0.00000000	9.52879000	-6.74212600
62.79999644	0.00000000	8.41535400	-3.25418300
62.99999643	0.00000000	8.41535400	3.29109200
63.19999642	0.00000000	9.52879000	10.96211000
63.39999641	0.00000000	11.06668000	17.92569000
63.59999639	0.00000000	12.64764000	22.53322000
63.79999638	0.00000000	14.18553000	23.78199000
63.99999637	0.00000000	15.29897000	21.83194000
64.19999636	0.00000000	15.29897000	17.59966000
64.39999635	0.00000000	14.18553000	11.38041000
64.59999634	0.00000000	12.60458000	4.91510800
64.79999632	0.00000000	10.69144000	-0.18454720
64.99999631	0.00000000	8.79060000	-2.88508800
65.19999630	0.00000000	8.04010800	-3.34030500
65.39999629	0.00000000	8.37229300	-1.35334600
65.59999628	0.00000000	9.52879000	2.46063000
65.79999626	0.00000000	11.06668000	7.47416300
65.99999625	0.00000000	12.60458000	12.07554000
66.19999624	0.00000000	13.71801000	15.27436000
66.39999623	0.00000000	13.71801000	17.23056000
66.59999622	0.00000000	12.60458000	18.06102000
66.79999620	0.00000000	11.06668000	17.64887000
66.99999619	0.00000000	9.52879000	16.48622000
67.19999618	0.00000000	8.41535400	14.07480000
67.39999617	0.00000000	8.45841400	10.67298000
67.59999616	0.00000000	9.95324800	7.10506800
67.79999615	0.00000000	12.27239000	4.02928100
67.99999613	0.00000000	14.56078000	1.25492100
68.19999612	0.00000000	16.50467000	-0.23991140
68.39999611	0.00000000	17.16289000	-0.64591530
68.59999610	0.00000000	16.04331000	0.59670270
68.79999609	0.00000000	12.93061000	3.66633800
68.99999607	0.00000000	9.15354300	7.98474400
69.19999606	0.00000000	5.62869100	13.00443000
69.39999605	0.00000000	3.34030500	17.97490000
69.59999604	0.00000000	2.55290300	21.03838000
69.79999603	0.00000000	3.80782500	21.46284000
69.99999601	0.00000000	7.25270600	19.54970000
70.19999600	0.00000000	12.27239000	15.64960000
70.39999599	0.00000000	17.25517000	10.58686000
70.59999598	0.00000000	21.16142000	4.82898600
70.79999597	0.00000000	23.06841000	-0.14148620
70.99999596	0.00000000	22.65010000	-2.46678100
71.19999594	0.00000000	19.53125000	-2.14074800
71.39999593	0.00000000	14.13632000	0.55364170
71.59999592	0.00000000	7.99704600	4.82898600
71.79999591	0.00000000	2.55290300	9.84867000
71.99999590	0.00000000	-0.89197830	14.81299000
72.19999588	0.00000000	-1.67938000	17.88263000
72.39999587	0.00000000	0.64591530	18.35015000
72.59999586	0.00000000	5.25344500	16.81225000
72.79999585	0.00000000	11.06668000	13.79183000
72.99999584	0.00000000	16.83686000	10.31004000
73.19999582	0.00000000	21.11220000	7.60949800
73.39999581	0.00000000	23.06841000	5.61638700
73.59999580	0.00000000	22.65010000	4.87204700
73.79999579	0.00000000	19.58046000	5.24729300
73.99999578	0.00000000	14.60384000	6.72982200
74.19999577	0.00000000	9.57800100	8.63681000
74.39999575	0.00000000	5.29650500	9.75639700
74.59999574	0.00000000	2.64517700	10.16855000
74.79999573	0.00000000	2.60211600	9.38115100
74.99999572	0.00000000	4.83513700	7.89247000
75.19999571	0.00000000	7.90477300	6.40378900
75.39999569	0.00000000	11.02362000	5.70866100
75.59999568	0.00000000	13.76107000	6.86515700
75.79999567	0.00000000	15.71727000	9.51648500
75.99999566	0.00000000	16.83686000	12.58612000
76.19999565	0.00000000	16.46161000	15.27436000
76.39999563	0.00000000	14.60384000	16.76919000
76.59999562	0.00000000	12.73991000	16.39395000
76.79999561	0.00000000	11.53420000	14.03174000
76.99999560	0.00000000	11.10974000	10.21161000
77.19999559	0.00000000	11.06668000	5.57332700
77.39999558	0.00000000	11.06668000	1.71013800
77.59999556	0.00000000	11.06668000	-0.97810030
77.79999555	0.00000000	11.06668000	-1.67322800
77.99999554	0.00000000	11.02362000	0.59670270
78.19999553	0.00000000	10.64838000	4.82898600
78.39999552	0.00000000	9.90403500	9.84867000
78.59999550	0.00000000	9.52879000	14.90526000
78.79999549	0.00000000	9.52879000	18.71924000
78.99999548	0.00000000	9.99630800	20.66929000
79.19999547	0.00000000	11.53420000	19.83883000
79.39999546	0.00000000	13.81028000	16.43701000
79.59999544	0.00000000	15.71727000	11.42347000
79.79999543	0.00000000	16.87992000	6.44685000
79.99999542	0.00000000	16.83686000	2.50369100
80.19999541	0.00000000	15.29897000	0.17839570
80.39999540	0.00000000	12.60458000	-0.60285430
80.59999539	-0.15871060	9.52879000	0.55364170
80.79999537	0.00000000	6.83439900	3.24803100
80.99999536	0.00000000	5.29650500	6.72982200
81.19999535	0.00000000	5.29650500	10.58686000
81.39999534	0.00000000	6.83439900	13.69956000
81.59999533	0.00000000	9.52879000	15.64960000
81.79999531	0.00000000	12.60458000	16.48007000
81.99999530	0.00000000	15.29897000	16.11712000
82.19999529	0.00000000	16.83686000	15.32357000
82.39999528	0.00000000	16.87992000	13.69956000
82.59999527	0.00000000	15.71727000	11.04823000
82.79999525	0.00000000	13.81028000	8.31077700
82.99999524	0.00000000	11.48499000	5.93626900
83.19999523	0.00000000	9.57800100	3.61712600
83.39999522	0.00000000	8.37229300	2.08538400
83.59999521	0.00000000	7.99704600	1.71013800
83.79999520	0.00000000	8.37229300	2.50369100
83.99999518	0.00000000	9.52879000	4.82283400
84.19999517	0.00000000	11.02362000	7.93553100
84.39999516	0.00000000	12.18012000	11.42347000
84.59999515	0.00000000	12.60458000	14.90526000
84.79999514	0.00000000	12.64764000	17.18750000
84.99999512	0.00000000	12.64764000	17.97490000
85.19999511	0.00000000	12.64764000	16.76919000
85.39999510	0.00000000	12.64764000	13.69956000
85.59999509	0.00000000	12.64764000	9.43036400
85.79999508	0.00000000	12.64764000	4.82898600
85.99999506	0.00000000	12.64764000	0.97194880
86.19999505	0.00000000	12.60458000	-0.93503930
86.39999504	0.00000000	12.22933000	-0.55979330
86.59999503	0.00000000	11.44193000	2.12844500
86.79999502	0.00000000	10.69144000	6.35457700
86.99999501	0.00000000	9.90403500	11.00517000
87.19999499	0.00000000	9.52879000	15.23130000
87.39999498	0.00000000	9.52879000	17.92569000
87.59999497	0.00000000	9.95324800	18.30093000
87.79999496	0.00000000	11.10974000	16.39395000
87.99999495	0.00000000	12.60458000	12.53691000
88.19999493	0.00000000	13.76107000	7.93553100
88.39999492	0.00000000	14.18553000	3.70939900
88.59999491	0.00000000	14.18553000	1.01501000
88.79999490	0.00000000	13.76107000	0.59670270
88.99999489	0.00000000	12.60458000	2.17765700
89.19999487	0.00000000	11.10974000	5.66560000
89.39999486	0.00000000	9.95324800	10.62992000
89.59999485	0.00000000	9.52879000	15.18824000
89.79999484	0.00000000	9.52879000	17.92569000
89.99999483	0.00000000	9.95324800	18.30093000
90.19999482	0.00000000	11.06668000	16.39395000
90.39999480	0.00000000	12.18012000	12.53691000
90.59999479	0.00000000	12.60458000	7.93553100
90.79999478	0.00000000	12.64764000	3.70939900
90.99999477	0.00000000	12.64764000	1.01501000
91.19999476	0.00000000	12.60458000	0.68897630
91.39999474	0.00000000	12.27239000	2.97121000
91.59999473	0.00000000	11.90330000	7.56028500
91.79999472	0.00000000	12.27239000	12.49385000
91.99999471	0.00000000	12.60458000	16.39395000
92.19999470	0.00000000	12.64764000	18.30093000
92.39999468	0.00000000	12.60458000	17.92569000
92.59999467	0.00000000	12.22933000	15.23130000
92.79999466	0.00000000	11.44193000	11.00517000
92.99999465	0.00000000	10.69144000	6.40378900
93.19999464	0.00000000	9.86097400	2.54675200
93.39999463	0.00000000	9.15354300	0.63976370
93.59999461	0.00000000	8.74138700	1.01501000
93.79999460	0.00000000	9.20275500	3.70939900
93.99999459	0.00000000	10.32234000	7.89247000
94.19999458	0.00000000	12.31545000	12.11860000
94.39999457	0.00000000	14.60384000	15.23130000
94.59999455	0.00000000	16.87992000	16.71998000
94.79999454	0.00000000	17.99951000	15.97564000
94.99999453	0.00000000	17.25517000	12.91215000
95.19999452	0.00000000	15.34203000	9.09817800
95.39999451	0.00000000	12.60458000	5.24729300
95.59999449	0.00000000	9.52879000	2.59596400
95.79999448	0.00000000	6.79133800	2.17150600
95.99999447	0.00000000	4.92125900	3.66633800
96.19999446	0.00000000	4.50910400	6.36072800
96.39999445	0.00000000	6.08390700	9.47342500
96.59999444	0.00000000	8.74138700	12.53691000
96.79999442	0.00000000	12.31545000	14.81299000
96.99999441	0.00000000	16.09252000	15.18824000
97.19999440	0.00000000	19.24828000	13.74262000
97.39999439	0.00000000	20.74926000	11.42347000
97.59999438	0.00000000	20.73696000	9.09817800
97.79999436	0.00000000	18.41781000	6.82209600
97.99999435	0.00000000	14.60384000	5.70866100
98.19999434	0.00000000	10.69144000	6.36072800
98.39999433	0.00000000	6.83439900	7.47416300
98.59999432	0.00000000	4.13385800	8.26771600
98.79999430	0.00000000	3.34030500	9.09817800
98.99999429	0.00000000	4.09079700	9.79945900
99.19999428	0.00000000	6.45915300	10.25467000
99.39999427	0.00000000	9.90403500	10.26698000
99.59999426	0.00000000	13.76107000	10.67298000
99.79999425	0.00000000	16.87992000	11.00517000
99.99999423	0.00000000	18.83612000	11.04823000
100.19999422	0.00000000	19.62352000	11.09129000
100.39999421	0.00000000	18.83612000	11.42347000
100.59999420	0.00000000	16.92298000	11.79257000
100.79999419	0.00000000	14.18553000	11.38041000
100.99999417	0.00000000	11.06668000	10.58686000
101.19999416	0.00000000	7.99704600	9.00590400
101.39999415	0.00000000	5.71481200	6.72982200
101.59999414	0.00000000	5.29650500	4.87204700
101.79999413	0.00000000	6.36687900	4.08464600
101.99999411	0.00000000	7.94783400	4.87204700
102.19999410	0.00000000	9.90403500	6.77903500
102.39999409	0.00000000	12.22933000	9.47342500
102.59999408	0.00000000	14.18553000	12.16781000
102.79999407	0.00000000	15.76649000	14.11786000
102.99999406	0.00000000	16.87992000	15.23130000
103.19999404	0.00000000	16.83686000	14.81299000
103.39999403	0.00000000	15.34203000	12.53691000
103.59999402	0.00000000	13.06594000	9.47342500
103.79999401	0.00000000	11.10974000	6.40378900
103.99999400	0.00000000	9.52879000	4.03543200
104.19999398	0.00000000	8.37229300	2.91584600
104.39999397	0.00000000	7.99704600	2.92199800
104.59999396	0.00000000	8.37229300	4.87204700
104.79999395	0.00000000	9.52879000	7.84940900
104.99999394	0.00000000	11.06668000	10.58686000
105.19999392	0.00000000	12.64764000	12.58612000
105.39999391	0.00000000	14.13632000	14.07480000
105.59999390	0.00000000	14.92372000	14.43775000
105.79999389	0.00000000	14.56078000	12.91215000
105.99999388	0.00000000	13.81028000	10.67298000
106.19999387	0.00000000	12.60458000	8.31077700
106.39999385	0.00000000	11.10974000	6.40378900
106.59999384	0.00000000	9.99630800	5.24729300
106.79999383	0.00000000	9.95324800	5.24729300
106.99999382	0.00000000	10.69144000	6.40378900
107.19999381	0.00000000	11.44193000	8.31077700
107.39999379	0.00000000	12.27239000	10.58686000
107.59999378	0.00000000	12.97982000	12.11860000
107.79999377	0.00000000	13.39198000	12.53691000
107.99999376	0.00000000	12.97982000	12.16166000
108.19999375	0.00000000	12.22933000	10.96211000
108.39999374	0.00000000	11.06668000	9.09817800
108.59999372	0.00000000	9.95324800	7.19734200
108.79999371	0.00000000	9.52879000	6.40378900
108.99999370	0.00000000	9.52879000	6.35457700
109.19999369	0.00000000	9.95324800	6.77903500
109.39999368	0.00000000	11.10974000	7.93553100
109.59999366	0.00000000	12.60458000	9.47342500
109.79999365	0.00000000	13.76107000	11.00517000
109.99999364	0.00000000	14.18553000	12.11860000
110.19999363	0.00000000	14.18553000	12.16166000
110.39999362	0.00000000	13.76107000	11.42347000
110.59999360	0.00000000	12.64764000	10.62992000
110.79999359	0.00000000	11.48499000	9.42421200
110.99999358	0.00000000	10.69144000	7.93553100
111.19999357	0.00000000	9.90403500	6.77903500
111.39999356	0.00000000	9.57800100	6.35457700
111.59999355	0.00000000	9.90403500	6.35457700
111.79999353	0.00000000	10.69144000	6.77903500
111.99999352	0.00000000	11.44193000	7.93553100
112.19999351	0.00000000	12.22933000	9.42421200
112.39999350	0.00000000	12.60458000	10.58686000
112.59999349	0.00000000	12.64764000	11.00517000
112.79999347	0.00000000	12.64764000	11.04823000
112.99999346	0.00000000	12.69070000	11.00517000
113.19999345	0.00000000	12.97982000	10.58686000
113.39999344	0.00000000	12.96752000	9.51648500
113.59999343	0.00000000	11.86024000	8.72908400
113.79999341	0.00000000	11.15896000	8.67987200
113.99999340	0.00000000	11.06668000	8.26771600
114.19999339	0.00000000	11.06668000	7.93553100
114.39999338	0.00000000	11.06668000	7.89247000
114.59999337	0.00000000	11.10974000	7.89247000
114.79999336	0.00000000	11.48499000	7.89247000
114.99999334	0.00000000	12.22933000	7.89247000
115.19999333	0.00000000	12.60458000	7.89247000
115.39999332	0.00000000	12.64764000	7.93553100
115.59999331	0.00000000	12.64764000	8.31077700
115.79999330	0.00000000	12.60458000	9.09817800
115.99999328	0.00000000	12.27239000	9.84867000
116.19999327	0.00000000	11.86024000	10.62992000
116.39999326	0.00000000	11.85408000	11.00517000
116.59999325	0.00000000	11.44193000	11.04823000
116.79999324	0.00000000	11.10974000	11.00517000
116.99999322	0.00000000	11.10974000	10.58686000
117.19999321	0.00000000	11.48499000	9.47342500
117.39999320	0.00000000	12.27239000	8.31077700
117.59999319	0.00000000	13.02288000	7.51722400
117.79999318	0.00000000	13.81028000	6.77903500
117.99999317	0.00000000	14.13632000	6.77903500
118.19999315	0.00000000	13.81028000	7.51722400
118.39999314	0.00000000	13.02288000	8.26771600
118.59999313	0.00000000	12.22933000	9.09817800
118.79999312	0.00000000	11.06668000	9.84867000
118.99999311	0.00000000	9.95324800	10.62992000
119.19999309	0.00000000	9.52879000	11.00517000
119.39999308	0.00000000	9.52879000	11.04823000
119.59999307	0.00000000	9.90403500	11.00517000
119.79999306	0.00000000	10.69144000	10.62992000
119.99999305	0.00000000	11.48499000	9.84867000
120.19999303	0.00000000	12.64764000	9.09817800
120.39999302	0.00000000	13.81028000	8.31077700
120.59999301	0.00000000	14.56078000	7.93553100
120.79999300	0.00000000	14.92372000	7.89247000
120.99999299	0.00000000	14.18553000	7.89247000
121.19999298	0.00000000	13.06594000	7.89247000
121.39999296	0.00000000	12.22933000	7.93553100
121.59999295	0.00000000	11.06668000	8.31077700
121.79999294	0.00000000	9.95324800	9.05511800
121.99999293	0.00000000	9.52879000	9.43036400
122.19999292	0.00000000	9.52879000	9.47342500
122.39999290	0.00000000	9.90403500	9.47342500
122.59999289	0.00000000	10.69144000	9.51648500
122.79999288	0.00000000	11.48499000	9.84867000
122.99999287	0.00000000	12.60458000	10.21161000
123.19999286	0.00000000	13.39198000	9.84867000
123.39999284	0.00000000	13.44119000	9.51648500
123.59999283	0.00000000	13.85334000	9.43036400
123.79999282	0.00000000	14.13632000	9.05511800
123.99999281	0.00000000	13.76107000	8.31077700
124.19999280	0.00000000	12.64764000	7.93553100
124.39999279	0.00000000	11.48499000	7.89247000
124.59999277	0.00000000	10.69144000	7.89247000
124.79999276	0.00000000	9.90403500	7.93553100
124.99999275	0.00000000	9.52879000	8.31077700
125.19999274	0.00000000	9.52879000	9.05511800
125.39999273	0.00000000	9.90403500	9.47342500
125.59999271	0.00000000	10.69144000	9.89173200
125.79999270	0.00000000	11.44193000	10.62992000
125.99999269	0.00000000	12.27239000	10.95595000
126.19999268	0.00000000	13.02288000	10.62992000
126.39999267	0.00000000	13.81028000	9.89173200
126.59999265	0.00000000	14.13632000	9.47342500
126.79999264	0.00000000	13.81028000	9.05511800
126.99999263	0.00000000	13.02288000	8.35998900
127.19999262	0.00000000	12.22933000	8.31077700
127.39999261	0.00000000	11.06668000	8.63681000
127.59999260	0.00000000	9.95324800	8.26771600
127.79999258	0.00000000	9.52879000	7.98474400
127.99999257	0.00000000	9.52879000	8.31077700
128.19999256	0.00000000	9.90403500	9.00590400
128.39999255	0.00000000	10.69144000	9.05511800
128.59999254	0.00000000	11.48499000	8.72908400
128.79999252	0.00000000	12.64764000	9.09817800
128.99999251	0.00000000	13.76107000	9.43036400
129.19999250	0.00000000	14.13632000	9.47342500
129.39999249	0.00000000	13.76107000	9.43036400
129.59999248	0.00000000	12.64764000	9.05511800
129.79999246	0.00000000	11.48499000	8.31077700
129.99999245	0.00000000	10.69144000	7.98474400
130.19999244	0.00000000	9.90403500	8.31077700
130.39999243	0.00000000	9.57800100	9.05511800
130.59999242	0.00000000	9.95324800	9.43036400
130.79999241	0.00000000	11.06668000	9.47342500
130.99999239	0.00000000	12.18012000	9.47342500
131.19999238	0.00000000	12.60458000	9.47342500
131.39999237	0.00000000	12.64764000	9.43036400
131.59999236	0.00000000	12.64764000	9.05511800
131.79999235	0.00000000	12.60458000	8.31077700
131.99999233	0.00000000	12.22933000	7.93553100
132.19999232	0.00000000	11.48499000	7.89247000
132.39999231	0.00000000	11.10974000	7.89247000
132.59999230	0.00000000	11.06668000	7.93553100
132.79999229	0.00000000	11.06668000	8.31077700
132.99999227	0.00000000	11.10974000	9.09817800
133.19999226	0.00000000	11.44193000	9.84867000
133.39999225	0.00000000	11.85408000	10.62992000
133.59999224	0.00000000	11.86024000	10.95595000
133.79999223	0.00000000	12.22933000	10.62992000
133.99999222	0.00000000	12.22933000	9.89173200
134.19999220	0.00000000	11.90330000	9.47342500
134.39999219	0.00000000	12.27239000	9.05511800
134.59999218	0.00000000	12.60458000	8.31077700
134.79999217	0.00000000	12.64764000	7.93553100
134.99999216	0.00000000	12.64764000	7.89247000
135.19999214	0.00000000	12.64764000	7.89247000
135.39999213	0.00000000	12.64764000	7.93553100
135.59999212	0.00000000	12.60458000	8.31077700
135.79999211	0.00000000	12.22933000	9.05511800
135.99999210	0.00000000	11.48499000	9.43036400
136.19999208	0.00000000	11.10974000	9.51648500
136.39999207	0.00000000	11.06668000	9.89173200
136.59999206	0.00000000	11.06668000	10.58686000
136.79999205	0.00000000	11.10974000	10.58686000
136.99999204	0.00000000	11.48499000	9.89173200
137.19999203	0.00000000	12.22933000	9.47342500
137.39999201	0.00000000	12.64764000	9.05511800
137.59999200	0.00000000	13.02288000	8.31077700
137.79999199	0.00000000	13.39198000	7.93553100
137.99999198	0.00000000	13.02288000	7.89247000
138.19999197	0.00000000	12.64764000	7.89247000
138.39999195	0.00000000	12.22933000	7.93553100
138.59999194	0.00000000	11.48499000	8.31077700
138.79999193	0.00000000	11.10974000	9.05511800
138.99999192	0.00000000	11.06668000	9.47342500
139.19999191	0.00000000	11.06668000	9.89173200
139.39999189	0.00000000	11.10974000	10.62992000
139.59999188	0.00000000	11.48499000	10.95595000
139.79999187	0.00000000	12.22933000	10.62992000
139.99999186	0.00000000	12.60458000	9.89173200
140.19999185	0.00000000	12.64764000	9.47342500
140.39999184	0.00000000	12.64764000	9.05511800
140.59999182	0.00000000	12.64764000	8.31077700
140.79999181	0.00000000	12.60458000	7.93553100
140.99999180	0.00000000	12.22933000	7.89247000
141.19999179	0.00000000	11.48499000	7.93553100
141.39999178	0.00000000	11.10974000	8.31077700
141.59999176	0.00000000	11.10974000	9.09817800
141.79999175	0.00000000	11.48499000	9.84867000
141.99999174	0.00000000	12.22933000	10.62992000
142.19999173	0.00000000	12.60458000	11.00517000
142.39999172	0.00000000	12.64764000	11.00517000
142.59999170	0.00000000	12.64764000	10.62992000
142.79999169	0.00000000	12.60458000	9.84867000
142.99999168	0.00000000	12.22933000	9.09817800
143.19999167	0.00000000	11.48499000	8.31077700
143.39999166	0.00000000	11.10974000	7.93553100
143.59999165	0.00000000	11.06668000	7.89247000
143.79999163	0.00000000	11.10974000	7.89247000
143.99999162	0.00000000	11.48499000	7.93553100
144.19999161	0.00000000	12.22933000	8.31077700
144.39999160	0.00000000	12.60458000	9.05511800
144.59999159	0.00000000	12.64764000	9.47342500
144.79999157	0.00000000	12.64764000	9.89173200
144.99999156	0.00000000	12.64764000	10.62992000
145.19999155	0.00000000	12.60458000	10.95595000
145.39999154	0.00000000	12.22933000	10.62992000
145.59999153	0.00000000	11.48499000	9.84867000
145.79999151	0.00000000	11.10974000	9.09817800
145.99999150	0.00000000	11.06668000	8.31077700
146.19999149	0.00000000	11.10974000	7.93553100
146.39999148	0.00000000	11.48499000	7.89247000
146.59999147	0.00000000	12.22933000	7.93553100
146.79999146	0.00000000	12.60458000	8.31077700
146.99999144	0.00000000	12.64764000	9.05511800
147.19999143	0.00000000	12.64764000	9.43036400
147.39999142	0.00000000	12.64764000	9.51648500
147.59999141	0.00000000	12.64764000	9.89173200
147.79999140	0.00000000	12.60458000	10.58686000
147.99999138	0.00000000	12.22933000	10.58686000
148.19999137	0.00000000	11.48499000	9.89173200
148.39999136	0.00000000	11.10974000	9.51648500
148.59999135	0.00000000	11.06668000	9.47342500
148.79999134	0.00000000	11.10974000	9.43036400
148.99999132	0.00000000	11.48499000	9.05511800
149.19999131	0.00000000	12.22933000	8.31077700
149.39999130	0.00000000	12.60458000	7.98474400
149.59999129	0.00000000	12.64764000	8.31077700
149.79999128	0.00000000	12.64764000	9.05511800
149.99999127	0.00000000	12.64764000	9.47342500
150.19999125	0.00000000	12.60458000	9.84867000
150.39999124	0.00000000	12.22933000	10.21161000
150.59999123	0.00000000	11.48499000	9.89173200
150.79999122	0.00000000	11.10974000	9.89173200
150.99999121	0.00000000	11.06668000	10.21161000
151.19999119	0.00000000	11.06668000	9.84867000
151.39999118	0.00000000	11.06668000	9.51648500
151.59999117	0.00000000	11.06668000	9.43036400
151.79999116	0.00000000	11.10974000	9.09817800
151.99999115	0.00000000	11.48499000	8.72908400
152.19999113	0.00000000	12.22933000	9.09817800
152.39999112	0.00000000	12.60458000	9.43036400
152.59999111	0.00000000	12.64764000	9.47342500
152.79999110	0.00000000	12.64764000	9.47342500
152.99999109	0.00000000	12.64764000	9.47342500
153.19999108	0.00000000	12.64764000	9.47342500
153.39999106	0.00000000	12.60458000	9.47342500
153.59999105	0.00000000	12.22933000	9.47342500
153.79999104	0.00000000	11.48499000	9.47342500
153.99999103	0.00000000	11.10974000	9.47342500
154.19999102	0.00000000	11.06668000	9.47342500
154.39999100	0.00000000	11.06668000	9.47342500
154.59999099	0.00000000	11.10974000	9.47342500
154.79999098	0.00000000	11.48499000	9.47342500
154.99999097	0.00000000	12.22933000	9.43036400
155.19999096	0.00000000	12.60458000	9.05511800
155.39999094	0.00000000	12.64764000	8.35998900
155.59999093	0.00000000	12.64764000	8.35998900
155.79999092	0.00000000	12.64764000	9.05511800
155.99999091	0.00000000	12.60458000	9.43036400
156.19999090	0.00000000	12.22933000	9.47342500
156.39999089	0.00000000	11.48499000	9.47342500
156.59999087	0.00000000	11.10974000	9.51648500
156.79999086	0.00000000	11.06668000	9.89173200
156.99999085	0.00000000	11.06668000	10.58686000
157.19999084	0.00000000	11.06668000	10.58686000
157.39999083	0.00000000	11.06668000	9.89173200
157.59999081	0.00000000	11.10974000	9.51648500
157.79999080	0.00000000	11.48499000	9.43036400
157.99999079	0.00000000	12.22933000	9.05511800
158.19999078	0.00000000	12.60458000	8.31077700
158.39999077	0.00000000	12.64764000	7.93553100
158.59999075	0.00000000	12.64764000	7.98474400
158.79999074	0.00000000	12.64764000	8.68602300
158.99999073	0.00000000	12.64764000	9.79330600
159.19999072	0.00000000	12.60458000	9.79945900
159.39999071	0.00000000	12.22933000	9.56569900
159.59999070	0.00000000	11.48499000	9.89173200
159.79999068	0.00000000	11.10974000	10.58686000
159.99999067	0.00000000	11.06668000	10.58686000
160.19999066	0.00000000	11.06668000	9.89173200
160.39999065	0.00000000	11.10974000	9.51648500
160.59999064	0.00000000	11.44193000	9.47342500
160.79999062	0.00000000	11.81102000	9.43036400
160.99999061	0.00000000	11.48499000	9.05511800
161.19999060	0.00000000	11.53420000	8.31077700
161.39999059	0.00000000	12.22933000	7.98474400
161.59999058	0.00000000	12.60458000	8.31077700
161.79999056	0.00000000	12.64764000	9.05511800
161.99999055	0.00000000	12.64764000	9.43036400
162.19999054	0.00000000	12.64764000	9.47342500
162.39999053	0.00000000	12.64764000	9.47342500
162.59999052	0.00000000	12.60458000	9.47342500
162.79999051	0.00000000	12.22933000	9.47342500
162.99999049	0.00000000	11.48499000	9.47342500
163.19999048	0.00000000	11.10974000	9.47342500
163.39999047	0.00000000	11.06668000	9.47342500
163.59999046	0.00000000	11.06668000	9.47342500
163.79999045	0.00000000	11.06668000	9.47342500
163.99999043	0.00000000	11.10974000	9.47342500
164.19999042	0.00000000	11.48499000	9.47342500
164.39999041	0.00000000	12.22933000	9.47342500
164.59999040	0.00000000	12.60458000	9.47342500
164.79999039	0.00000000	12.64764000	9.47342500
164.99999037	0.00000000	12.64764000	9.47342500
165.19999036	0.00000000	12.64764000	9.47342500
165.39999035	0.00000000	12.64764000	9.47342500
165.59999034	0.00000000	12.60458000	9.47342500
165.79999033	0.00000000	12.22933000	9.47342500
165.99999032	0.00000000	11.48499000	9.47342500
166.19999030	0.00000000	11.10974000	9.47342500
166.39999029	0.00000000	11.06668000	9.47342500
166.59999028	0.00000000	11.06668000	9.47342500
166.79999027	0.00000000	11.10974000	9.47342500
166.99999026	0.00000000	11.48499000	9.47342500
167.19999024	0.00000000	12.22933000	9.47342500
167.39999023	0.00000000	12.60458000	9.47342500
167.59999022	0.00000000	12.64764000	9.47342500
167.79999021	0.00000000	12.64764000	9.47342500
167.99999020	0.00000000	12.64764000	9.47342500
168.19999018	0.00000000	12.64764000	9.47342500
168.39999017	0.00000000	12.64764000	9.47342500
168.59999016	0.00000000	12.60458000	9.47342500
168.79999015	0.00000000	12.27239000	9.47342500
168.99999014	0.00000000	11.86024000	9.43036400
169.19999013	0.00000000	11.89715000	9.09817800
169.39999011	0.00000000	11.86024000	8.72908400
169.59999010	0.00000000	12.22933000	9.09817800
169.79999009	0.00000000	12.18012000	9.43036400
169.99999008	0.00000000	11.53420000	9.47342500
170.19999007	0.00000000	11.53420000	9.47342500
170.39999005	0.00000000	12.18012000	9.47342500
170.59999004	0.00000000	12.22933000	9.47342500
170.79999003	0.00000000	11.90330000	9.47342500
170.99999002	0.00000000	12.27239000	9.47342500
171.19999001	0.00000000	12.60458000	9.47342500
171.39998999	0.00000000	12.64764000	9.47342500
171.59998998	0.00000000	12.64764000	9.47342500
171.79998997	0.00000000	12.64764000	9.47342500
171.99998996	0.00000000	12.60458000	9.47342500
172.19998995	0.00000000	12.27239000	9.51648500
172.39998994	0.00000000	11.86024000	9.84867000
172.59998992	0.00000000	11.85408000	10.21161000
172.79998991	0.00000000	11.48499000	9.84867000
172.99998990	0.00000000	11.53420000	9.51648500
173.19998989	0.00000000	12.18012000	9.47342500
173.39998988	0.00000000	12.18012000	9.47342500
173.59998986	0.00000000	11.48499000	9.43036400
173.79998985	0.00000000	11.15896000	9.09817800
173.99998984	0.00000000	11.48499000	8.72908400
174.19998983	0.00000000	12.22933000	9.09817800
174.39998982	0.00000000	12.60458000	9.43036400
174.59998980	0.00000000	12.64764000	9.47342500
174.79998979	0.00000000	12.64764000	9.47342500
174.99998978	0.00000000	12.64764000	9.47342500
175.19998977	0.00000000	12.64764000	9.47342500
175.39998976	0.00000000	12.64764000	9.47342500
175.59998975	0.00000000	12.64764000	9.47342500
175.79998973	0.00000000	12.64764000	9.47342500
175.99998972	0.00000000	12.64764000	9.47342500
176.19998971	0.00000000	12.64764000	9.47342500
176.39998970	0.00000000	12.64764000	9.47342500
176.59998969	0.00000000	12.64764000	9.47342500
176.79998967	0.00000000	12.64764000	9.47342500
176.99998966	0.00000000	12.64764000	9.47342500
177.19998965	0.00000000	12.64764000	9.47342500
177.39998964	0.00000000	12.64764000	9.47342500
177.59998963	0.00000000	12.60458000	9.47342500
177.79998961	0.00000000	12.22933000	9.47342500
177.99998960	0.00000000	11.53420000	9.47342500
178.19998959	0.00000000	11.48499000	9.47342500
178.39998958	0.00000000	11.85408000	9.47342500
178.59998957	0.00000000	11.81717000	9.47342500
178.79998956	0.00000000	11.89715000	9.47342500
178.99998954	0.00000000	11.86024000	9.47342500
179.19998953	0.00000000	12.27239000	9.47342500
179.39998952	0.00000000	12.60458000	9.47342500
179.59998951	0.00000000	12.64764000	9.47342500
179.79998950	0.00000000	12.64764000	9.47342500
179.99998948	0.00000000	12.64764000	9.43036400
180.19998947	0.00000000	12.64764000	9.09817800
180.39998946	0.00000000	12.64764000	8.72908400
180.59998945	0.00000000	12.64764000	9.09817800
180.79998944	0.00000000	12.60458000	9.43036400
180.99998942	0.00000000	12.22933000	9.47342500
181.19998941	0.00000000	11.53420000	9.47342500
181.39998940	0.00000000	11.48499000	9.47342500
181.59998939	0.00000000	11.85408000	9.47342500
181.79998938	0.00000000	11.86024000	9.47342500
181.99998937	0.00000000	12.27239000	9.47342500
182.19998935	0.00000000	12.60458000	9.47342500
182.39998934	0.00000000	12.64764000	9.47342500
182.59998933	0.00000000	12.64764000	9.47342500
182.79998932	0.00000000	12.64764000	9.43036400
182.99998931	0.00000000	12.64764000	9.05511800
183.19998929	0.00000000	12.64764000	8.31077700
183.39998928	0.00000000	12.64764000	7.98474400
183.59998927	0.00000000	12.64764000	8.31077700
183.79998926	0.00000000	12.60458000	9.05511800
183.99998925	0.00000000	12.27239000	9.43036400
184.19998923	0.00000000	11.90330000	9.47342500
184.39998922	0.00000000	12.27239000	9.47342500
184.59998921	0.00000000	12.60458000	9.47342500
184.79998920	0.00000000	12.64764000	9.47342500
184.99998919	0.00000000	12.64764000	9.47342500
185.19998918	0.00000000	12.64764000	9.47342500
185.39998916	0.00000000	12.64764000	9.47342500
185.59998915	0.00000000	12.64764000	9.43036400
185.79998914	0.00000000	12.64764000	9.05511800
185.99998913	0.00000000	12.64764000	8.31077700
186.19998912	0.00000000	12.64764000	7.93553100
186.39998910	0.00000000	12.64764000	7.93553100
186.59998909	0.00000000	12.64764000	8.31077700
186.79998908	0.00000000	12.60458000	9.05511800
186.99998907	0.00000000	12.22933000	9.43036400
187.19998906	0.00000000	11.48499000	9.47342500
187.39998904	0.00000000	11.10974000	9.47342500
187.59998903	0.00000000	11.10974000	9.47342500
187.79998902	0.00000000	11.48499000	9.47342500
187.99998901	0.00000000	12.22933000	9.47342500
188.19998900	0.00000000	12.60458000	9.47342500
188.39998899	0.00000000	12.64764000	9.43036400
188.59998897	0.00000000	12.64764000	9.05511800
188.79998896	0.00000000	12.64764000	8.35998900
188.99998895	0.00000000	12.64764000	8.31077700
189.19998894	0.00000000	12.64764000	8.67987200
189.39998893	0.00000000	12.60458000	8.68602300
189.59998891	0.00000000	12.22933000	9.09817800
189.79998890	0.00000000	11.53420000	9.43036400
189.99998889	0.00000000	11.48499000	9.47342500
190.19998888	0.00000000	11.85408000	9.47342500
190.39998887	0.00000000	11.81717000	9.47342500
190.59998885	0.00000000	11.89715000	9.47342500
190.79998884	0.00000000	11.86024000	9.47342500
190.99998883	0.00000000	12.27239000	9.47342500
191.19998882	0.00000000	12.60458000	9.47342500
191.39998881	0.00000000	12.64764000	9.47342500
191.59998880	0.00000000	12.64764000	9.47342500
191.79998878	0.00000000	12.64764000	9.47342500
191.99998877	0.00000000	12.64764000	9.47342500
192.19998876	0.00000000	12.64764000	9.47342500
192.39998875	0.00000000	12.60458000	9.43036400
192.59998874	0.00000000	12.22933000	9.09817800
192.79998872	0.00000000	11.53420000	8.72908400
192.99998871	0.00000000	11.48499000	9.09817800
193.19998870	0.00000000	11.85408000	9.43036400
193.39998869	0.00000000	11.81717000	9.47342500
193.59998868	0.00000000	11.89715000	9.47342500
193.79998866	0.00000000	11.86024000	9.47342500
193.99998865	0.00000000	12.27239000	9.47342500
194.19998864	0.00000000	12.60458000	9.47342500
194.39998863	0.00000000	12.64764000	9.47342500
194.59998862	0.00000000	12.64764000	9.47342500
194.79998861	0.00000000	12.64764000	9.47342500
194.99998859	0.00000000	12.64764000	9.47342500
195.19998858	0.00000000	12.64764000	9.47342500
195.39998857	0.00000000	12.64764000	9.47342500
195.59998856	0.00000000	12.60458000	9.43036400
195.79998855	0.00000000	12.22933000	9.09817800
195.99998853	0.00000000	11.48499000	8.72908400
