Time	Channel A	Channel B	Channel C
(us)	(V)	(mV)	(mV)

-4.59999956	0.00000000	8.32308000	7.89247000
-4.39999957	0.00000000	9.06742000	7.89247000
-4.19999958	0.00000000	9.39345400	7.89247000
-3.99999959	0.00000000	9.11048200	7.89247000
-3.79999960	0.00000000	8.69832600	7.89247000
-3.59999962	0.00000000	8.73523500	7.89247000
-3.39999963	0.00000000	8.69832600	7.89247000
-3.19999964	0.00000000	9.11048200	7.89247000
-2.99999965	0.00000000	9.44266700	7.89247000
-2.79999966	0.00000000	9.48572700	7.89247000
-2.59999968	0.00000000	9.48572700	7.89247000
-2.39999969	0.00000000	9.48572700	7.89247000
-2.19999970	0.00000000	9.48572700	7.89247000
-1.99999971	0.00000000	9.48572700	7.89247000
-1.79999972	0.00000000	9.48572700	7.89247000
-1.59999973	0.00000000	9.44266700	7.89247000
-1.39999975	0.00000000	9.06742000	7.89247000
-1.19999976	0.00000000	8.37229300	7.89247000
-0.99999977	0.00000000	8.32308000	7.89247000
-0.79999978	0.00000000	8.69217500	7.89247000
-0.59999979	0.00000000	8.69832600	7.89247000
-0.39999981	0.00000000	9.11048200	7.89247000
-0.19999982	0.31803640	9.44266700	7.89247000
0.00000017	0.79601380	9.48572700	7.89247000
0.20000016	0.95533960	9.48572700	7.89247000
0.40000015	0.95533960	9.44266700	7.89247000
0.60000013	0.79601380	9.11048200	7.89247000
0.80000012	0.15871060	8.74138700	7.89247000
1.00000011	-0.79601380	9.11048200	7.89247000
1.20000010	-1.75196900	9.44266700	7.89247000
1.40000009	-2.54859700	9.48572700	7.89247000
1.60000008	-2.86724900	9.48572700	7.89247000
1.80000006	-2.22994600	9.44266700	7.89247000
2.00000005	-0.79601380	9.11048200	7.89247000
2.20000004	1.11466500	8.74138700	7.89247000
2.40000003	3.18590100	9.11048200	7.89247000
2.60000002	4.77854300	9.39345400	7.89247000
2.80000000	5.25652100	9.11048200	7.89247000
2.99999999	4.45989200	8.69832600	7.89247000
3.19999998	2.07062000	8.73523500	7.89247000
3.39999997	-1.11466500	8.65526600	7.89247000
3.59999996	-4.45989200	8.69217500	7.89247000
3.79999994	-7.00848900	8.32308000	7.93553100
3.99999993	-7.96444400	8.37229300	8.31077700
4.19999992	-7.00848900	9.06742000	9.05511800
4.39999991	-3.98191400	9.44266700	9.43036400
4.59999990	0.00000000	9.48572700	9.47342500
4.79999989	4.45989200	9.48572700	9.43036400
4.99999987	7.96444400	9.48572700	9.05511800
5.19999986	9.39837600	9.44266700	8.31077700
5.39999985	8.60174700	9.11048200	7.93553100
5.59999984	5.57517200	8.74138700	7.89247000
5.79999983	1.11466500	9.06742000	7.89247000
5.99999981	-3.66326300	9.06742000	7.89247000
6.19999980	-7.48646600	8.74138700	7.89247000
6.39999979	-9.39837600	9.11048200	7.93553100
6.59999978	-8.92039900	9.44266700	8.31077700
6.79999977	-6.37180100	9.48572700	9.05511800
6.99999975	-2.22994600	9.44266700	9.38115100
7.19999974	2.22994600	9.11048200	9.05511800
7.39999973	5.73449800	8.74138700	8.31077700
7.59999972	7.48646600	9.11048200	7.93553100
7.79999971	7.48646600	9.44266700	7.89247000
7.99999970	5.57517200	9.44266700	7.89247000
8.19999968	2.54859700	9.11048200	7.89247000
8.39999967	-0.79601380	8.74138700	7.89247000
8.59999966	-3.50393700	9.11048200	7.89247000
8.79999965	-4.93786900	9.44266700	7.89247000
8.99999964	-5.09719500	9.48572700	7.89247000
9.19999962	-3.98191400	9.48572700	7.89247000
9.39999961	-2.07062000	9.48572700	7.89247000
9.59999960	-0.15871060	9.48572700	7.89247000
9.79999959	1.43331700	9.48572700	7.89247000
9.99999958	2.38927200	9.48572700	7.89247000
10.19999956	2.54859700	9.48572700	7.89247000
10.39999955	2.07062000	9.48572700	7.89247000
10.59999954	1.27399100	9.44266700	7.89247000
10.79999953	0.31803640	9.11048200	7.89247000
10.99999952	-0.47736220	8.74138700	7.89247000
11.19999951	-0.95533960	9.11048200	7.89247000
11.39999949	-0.95533960	9.44266700	7.89247000
11.59999948	-0.95533960	9.48572700	7.89247000
11.79999947	-0.63668800	9.48572700	7.93553100
11.99999946	-0.31803640	9.48572700	8.31077700
12.19999945	-0.15871060	9.48572700	9.00590400
12.39999943	-0.15871060	9.48572700	9.00590400
12.59999942	-0.15871060	9.48572700	8.35998900
12.79999941	0.00000000	9.48572700	8.31077700
12.99999940	0.00000000	9.48572700	8.63681000
13.19999939	0.00000000	9.48572700	8.26771600
13.39999937	0.00000000	9.48572700	7.93553100
13.59999936	0.00000000	9.48572700	7.89247000
13.79999935	0.00000000	9.48572700	7.89247000
13.99999934	-0.15871060	9.48572700	7.89247000
14.19999933	-0.15871060	9.48572700	7.89247000
14.39999932	-0.15871060	9.44266700	7.89247000
14.59999930	-0.15871060	9.11048200	7.89247000
14.79999929	-0.15871060	8.69832600	7.89247000
14.99999928	0.00000000	8.69217500	7.89247000
15.19999927	0.00000000	8.28001900	7.89247000
15.39999926	0.00000000	7.99704600	7.89247000
15.59999924	0.00000000	8.28001900	7.89247000
15.79999923	0.00000000	8.69217500	7.89247000
15.99999922	0.00000000	8.65526600	7.89247000
16.19999921	0.00000000	8.69217500	7.89247000
16.39999920	-0.15871060	8.32308000	7.89247000
16.59999919	-0.15871060	8.37229300	7.89247000
16.79999917	-0.15871060	9.06742000	7.89247000
16.99999916	-0.15871060	9.48572700	7.89247000
17.19999915	0.00000000	9.90403500	7.89247000
17.39999914	0.00000000	10.64838000	7.89247000
17.59999913	0.00000000	10.97441000	7.89247000
17.79999911	0.00000000	10.59916000	7.89247000
17.99999910	0.00000000	9.48572700	7.89247000
18.19999909	0.00000000	8.32308000	7.89247000
18.39999908	0.00000000	7.48646600	7.89247000
18.59999907	0.00000000	6.28075700	7.89247000
18.79999905	0.00000000	4.78592500	7.89247000
18.99999904	0.00000000	3.71555100	7.89247000
19.19999903	0.00000000	4.13385800	7.89247000
19.39999902	0.00000000	6.41609200	7.89247000
19.59999901	0.00000000	9.52879000	7.89247000
19.79999900	0.00000000	13.06594000	7.89247000
19.99999898	0.00000000	16.92298000	7.89247000
20.19999897	0.00000000	19.95571000	7.89247000
20.39999896	0.00000000	21.02608000	7.89247000
20.59999895	0.00000000	19.06988000	7.89247000
20.79999894	0.00000000	14.05020000	7.89247000
20.99999892	0.00000000	7.43725300	7.89247000
21.19999891	0.00000000	0.04306102	7.89247000
21.39999890	0.00000000	-6.84055100	7.89247000
21.59999889	0.00000000	-11.02977000	7.89247000
21.79999888	0.00000000	-10.98671000	7.89247000
21.99999886	0.00000000	-6.24384800	7.89247000
22.19999885	0.00000000	3.06348400	7.89247000
22.39999884	0.00000000	15.43430000	7.89247000
22.59999883	0.00000000	27.76821000	7.89247000
22.79999882	0.00000000	37.35236000	7.89247000
22.99999881	0.00000000	41.12328000	7.93553100
23.19999879	0.00000000	37.22318000	8.31077700
23.39999878	0.00000000	26.37795000	9.05511800
23.59999877	0.00000000	10.46998000	9.43036400
23.79999876	0.00000000	-7.30807100	9.47342500
23.99999875	0.00000000	-23.08071000	9.47342500
24.19999873	0.00000000	-32.66486000	9.43036400
24.39999872	0.00000000	-32.94783000	9.00590400
24.59999871	0.00000000	-23.26525000	7.84940900
24.79999870	0.00000000	-5.08120100	6.31151500
24.99999869	0.00000000	17.30438000	4.73671200
25.19999867	0.00000000	38.93332000	3.24803100
25.39999866	0.00000000	54.71210000	2.50369100
25.59999865	0.00000000	60.43307000	3.29109200
25.79999864	0.00000000	54.24458000	5.19808000
25.99999863	0.00000000	37.26624000	7.98474400
26.19999862	0.00000000	13.71801000	11.46653000
26.39999860	0.00000000	-11.02977000	15.32357000
26.59999859	0.00000000	-31.50221000	18.35015000
26.79999858	0.00000000	-43.08563000	19.46358000
26.99999857	0.00000000	-43.04257000	17.88263000
27.19999856	0.00000000	-31.08391000	13.61343000
27.39999854	0.00000000	-9.86712600	7.38188900
27.59999853	0.00000000	15.21284000	0.00000000
27.79999852	0.00000000	38.37967000	-7.25270600
27.99999851	-0.15871060	54.28764000	-12.17397000
28.19999850	0.00000000	59.69488000	-12.54921000
28.39999848	0.00000000	53.96161000	-8.27386800
28.59999847	0.00000000	38.10285000	-0.09842519
28.79999846	0.00000000	16.55389000	11.14050000
28.99999845	0.00000000	-5.86860200	23.03765000
29.19999844	0.00000000	-23.68356000	32.70177000
29.39999843	0.00000000	-33.45841000	37.63533000
29.59999841	0.00000000	-34.24581000	36.46653000
29.79999840	0.00000000	-25.73203000	28.66634000
29.99999839	0.00000000	-9.95939900	15.93258000
30.19999838	0.00000000	8.93208600	0.46751960
30.39999837	0.00000000	26.37795000	-14.16708000
30.59999835	0.00000000	38.80413000	-24.58169000
30.79999834	0.00000000	44.28518000	-28.38951000
30.99999833	0.00000000	42.00910000	-24.11417000
31.19999832	0.00000000	33.16929000	-12.54921000
31.39999831	0.00000000	19.99877000	3.66633800
31.59999829	0.00000000	5.33956700	21.08760000
31.79999828	0.00000000	-7.44955700	36.14050000
31.99999827	0.00000000	-15.63730000	45.80462000
32.19999826	0.00000000	-18.38090000	47.71161000
32.39999825	0.00000000	-15.30512000	41.52928000
32.59999824	0.00000000	-7.21579700	28.38337000
32.79999822	0.00000000	3.58021600	11.00517000
32.99999821	0.00000000	14.78838000	-6.74212600
33.19999820	0.00000000	23.67741000	-21.05069000
33.39999819	0.00000000	28.37721000	-28.80782000
33.59999818	0.00000000	28.42027000	-28.80782000
33.79999816	0.00000000	24.18799000	-21.09375000
33.99999815	0.00000000	16.87992000	-7.20349400
34.19999814	0.00000000	8.41535400	9.38115100
34.39999813	-0.15871060	1.06422200	25.27067000
34.59999812	0.00000000	-3.58636800	37.21087000
34.79999810	0.00000000	-4.74901600	42.64886000
34.99999809	0.00000000	-2.09768700	40.37278000
35.19999808	0.00000000	3.25418300	31.49606000
35.39999807	0.00000000	9.39345400	17.97490000
35.59999806	0.00000000	14.78838000	2.59596400
35.79999805	0.00000000	17.90723000	-10.50689000
35.99999803	0.00000000	18.32554000	-18.26402000
36.19999802	0.00000000	16.36934000	-19.46973000
36.39999801	0.00000000	12.13706000	-14.12401000
36.59999800	0.00000000	6.83439900	-4.14000900
36.79999799	0.00000000	2.55290300	7.80634800
36.99999797	0.00000000	0.22760820	19.00221000
37.19999796	0.00000000	-0.14148620	26.66708000
37.39999795	0.00000000	2.17765700	28.98622000
37.59999794	0.00000000	6.36687900	25.17839000
37.79999793	0.00000000	11.02362000	16.81225000
37.99999791	0.00000000	15.25591000	6.82209600
38.19999790	0.00000000	17.95029000	-2.00541300
38.39999789	0.00000000	18.32554000	-7.34498000
38.59999788	0.00000000	16.41855000	-7.34498000
38.79999787	0.00000000	12.60458000	-2.04847400
38.99999786	0.00000000	8.37229300	6.36072800
39.19999784	0.00000000	4.78592500	15.18824000
39.39999783	0.00000000	1.67322800	22.06570000
39.59999782	0.00000000	-0.55979330	24.71703000
39.79999781	0.00000000	-0.55979330	22.06570000
39.99999780	0.00000000	1.71628900	15.14518000
40.19999778	0.00000000	5.16117100	5.93626900
40.39999777	0.00000000	9.06742000	-3.25418300
40.59999776	0.00000000	12.60458000	-9.34424200
40.79999775	0.00000000	15.71727000	-10.54995000
40.99999774	0.00000000	17.99951000	-6.69291300
41.19999772	0.00000000	18.37475000	1.01501000
41.39999771	0.00000000	16.87992000	11.00517000
41.59999770	0.00000000	14.13632000	20.53395000
41.79999769	0.00000000	10.64838000	26.34104000
41.99999768	0.00000000	6.79133800	27.17766000
42.19999767	0.00000000	3.71555100	23.68971000
42.39999765	0.00000000	2.09153500	16.39395000
42.59999764	0.00000000	1.67322800	7.19734200
42.79999763	0.00000000	2.09153500	-0.89197830
42.99999762	0.00000000	3.67249000	-6.32381900
43.19999761	0.00000000	6.32381900	-7.85556000
43.39999759	0.00000000	9.01820900	-5.25344500
43.59999758	0.00000000	10.97441000	0.13533460
43.79999757	0.00000000	12.22933000	6.68676100
43.99999756	0.00000000	12.97982000	13.23819000
44.19999755	0.00000000	13.39198000	17.83957000
44.39999753	0.00000000	13.02288000	19.46358000
44.59999752	0.00000000	12.64764000	18.35015000
44.79999751	0.00000000	12.22933000	15.27436000
44.99999750	0.00000000	11.48499000	11.04823000
45.19999749	0.00000000	11.06668000	6.82209600
45.39999748	0.00000000	10.55610000	3.70939900
45.59999746	0.00000000	8.97514600	2.12844500
45.79999745	0.00000000	6.28075700	2.08538400
45.99999744	0.00000000	3.20497000	3.24803100
46.19999743	0.00000000	0.51058070	5.19808000
46.39999742	0.00000000	-0.98425190	7.89247000
46.59999740	0.00000000	-0.55979330	10.53765000
46.79999739	0.00000000	2.17765700	12.11860000
46.99999738	0.00000000	6.87746000	12.53691000
47.19999737	0.00000000	13.06594000	12.16166000
47.39999736	0.00000000	19.58046000	10.96211000
47.59999734	0.00000000	24.18799000	9.05511800
47.79999733	0.00000000	25.67667000	6.72982200
47.99999732	0.00000000	23.34522000	4.77977300
48.19999731	0.00000000	17.16289000	3.24803100
48.39999730	0.00000000	9.06742000	2.54675200
48.59999729	0.00000000	0.51058070	3.70939900
48.79999727	-0.15871060	-6.74827700	6.36072800
48.99999726	0.00000000	-10.56225000	9.42421200
49.19999725	0.00000000	-9.40575800	12.16781000
49.39999724	0.00000000	-3.63558100	14.11786000
49.59999723	0.00000000	5.25344500	15.23130000
49.79999721	0.00000000	15.25591000	14.81299000
49.99999720	0.00000000	23.72047000	12.49385000
50.19999719	0.00000000	28.37721000	9.05511800
50.39999718	0.00000000	28.37721000	5.19808000
50.59999717	0.00000000	23.72047000	2.08538400
50.79999715	0.00000000	15.25591000	0.17839570
50.99999714	0.00000000	5.25344500	-0.18454720
51.19999713	0.00000000	-3.54330700	1.75935000
51.39999712	0.00000000	-8.56299200	5.19808000
51.59999711	0.00000000	-8.24311000	9.47342500
51.79999710	0.00000000	-3.67864200	13.65650000
51.99999708	0.00000000	3.67249000	16.35089000
52.19999707	0.00000000	12.13706000	16.76919000
52.39999706	0.00000000	19.44513000	15.27436000
52.59999705	0.00000000	23.67741000	12.53691000
52.79999704	0.00000000	23.67741000	9.05511800
52.99999702	0.00000000	19.48819000	5.19808000
53.19999701	0.00000000	12.55536000	2.17765700
53.39999700	0.00000000	4.92125900	0.97194880
53.59999699	0.00000000	-1.21186000	1.75319900
53.79999698	0.00000000	-3.54330700	3.99237200
53.99999696	0.00000000	-2.09768700	7.05585600
54.19999695	0.00000000	2.17765700	9.38115100
54.39999694	0.00000000	8.32308000	10.96211000
54.59999693	0.00000000	14.83760000	11.70029000
54.79999692	0.00000000	19.39591000	10.96211000
54.99999691	0.00000000	20.60162000	9.47342500
55.19999689	0.00000000	18.32554000	7.93553100
55.39999688	0.00000000	13.76107000	6.77903500
55.59999687	0.00000000	8.32308000	6.44685000
55.79999686	0.00000000	3.29724400	7.19734200
55.99999685	0.00000000	-0.51673230	9.09817800
56.19999683	0.00000000	-1.63016700	10.96211000
56.39999682	0.00000000	0.64591530	12.11860000
56.59999681	0.00000000	5.21038300	12.07554000
56.79999680	0.00000000	10.55610000	10.49459000
56.99999679	0.00000000	14.83760000	7.42495000
57.19999677	0.00000000	17.21210000	3.66633800
57.39999676	0.00000000	17.95029000	0.97194880
57.59999675	0.00000000	16.36934000	0.17839570
57.79999674	0.00000000	12.60458000	1.01501000
57.99999673	0.00000000	8.37229300	4.12770700
58.19999672	0.00000000	4.87819900	9.09817800
58.39999670	0.00000000	2.55290300	14.11786000
58.59999669	0.00000000	2.17765700	18.35015000
58.79999668	0.00000000	3.67249000	20.57702000
58.99999667	0.00000000	6.36687900	19.42052000
59.19999666	0.00000000	9.44266700	15.18824000
59.39999664	0.00000000	12.13706000	9.00590400
59.59999663	0.00000000	13.67495000	2.08538400
59.79999662	0.00000000	13.71801000	-3.62942900
59.99999661	0.00000000	12.60458000	-6.32381900
60.19999660	-0.15871060	11.02362000	-5.16117100
60.39999658	0.00000000	9.11048200	-0.55979330
60.59999657	0.00000000	7.20964500	6.40378900
60.79999656	0.00000000	6.45915300	14.07480000
60.99999655	0.00000000	6.79133800	20.62008000
61.19999654	0.00000000	7.94783400	24.06496000
61.39999653	0.00000000	9.44266700	23.68971000
61.59999651	0.00000000	10.59916000	19.46358000
61.79999650	0.00000000	11.02362000	12.54306000
61.99999649	0.00000000	11.02362000	4.82898600
62.19999648	0.00000000	10.59916000	-2.14074800
62.39999647	0.00000000	9.44266700	-6.69291300
62.59999645	0.00000000	7.90477300	-7.52952700
62.79999644	0.00000000	6.41609200	-4.42298200
62.99999643	0.00000000	5.67175200	1.30413400
63.19999642	0.00000000	6.41609200	8.67987200
63.39999641	0.00000000	7.90477300	15.56348000
63.59999639	0.00000000	9.48572700	20.62008000
63.79999638	0.00000000	11.06668000	22.52707000
63.99999637	0.00000000	12.55536000	21.03838000
64.19999636	0.00000000	13.29970000	16.81225000
64.39999635	0.00000000	12.51230000	11.00517000
64.59999634	0.00000000	10.64838000	4.82898600
64.79999632	0.00000000	8.32308000	-0.55979330
64.99999631	0.00000000	6.45915300	-3.67249000
65.19999630	0.00000000	5.62869100	-4.14000900
65.39999629	0.00000000	5.99163300	-2.60211600
65.59999628	0.00000000	6.74212600	0.51058070
65.79999626	0.00000000	7.94783400	4.77977300
65.99999625	0.00000000	9.44266700	9.43036400
66.19999624	0.00000000	10.59916000	13.65650000
66.39999623	0.00000000	10.97441000	16.39395000
66.59999622	0.00000000	10.55610000	17.23056000
66.79999620	0.00000000	9.06742000	16.85531000
66.99999619	0.00000000	7.20964500	15.32357000
67.19999618	0.00000000	6.45915300	12.95522000
67.39999617	0.00000000	6.79133800	10.21161000
67.59999616	0.00000000	7.99704600	6.68676100
67.79999615	0.00000000	9.90403500	3.24803100
67.99999613	0.00000000	12.22933000	0.51058070
68.19999612	0.00000000	14.09326000	-1.06422200
68.39999611	0.00000000	14.83760000	-1.43946800
68.59999610	0.00000000	13.67495000	-0.60285430
68.79999609	0.00000000	10.97441000	2.12844500
68.99999607	0.00000000	7.48646600	6.35457700
69.19999606	0.00000000	3.62942900	11.00517000
69.39999605	0.00000000	0.59670270	15.32357000
69.59999604	0.00000000	-0.55979330	18.76845000
69.79999603	0.00000000	0.59670270	20.66929000
69.99999601	0.00000000	3.71555100	19.83883000
70.19999600	0.00000000	8.37229300	16.39395000
70.39999599	0.00000000	13.76107000	10.96211000
70.59999598	0.00000000	18.37475000	4.82898600
70.79999597	0.00000000	21.06914000	-0.55979330
70.99999596	0.00000000	21.06914000	-3.67249000
71.19999594	0.00000000	18.32554000	-4.09079700
71.39999593	0.00000000	13.29970000	-2.14074800
71.59999592	0.00000000	6.79133800	2.08538400
71.79999591	0.00000000	1.02116100	7.47416300
71.99999590	0.00000000	-2.51599400	12.49385000
72.19999588	0.00000000	-3.67864200	16.35089000
72.39999587	0.00000000	-2.09768700	17.88263000
72.59999586	0.00000000	2.13459600	16.81225000
72.79999585	0.00000000	7.90477300	14.11786000
72.99999584	0.00000000	13.71801000	10.67298000
73.19999582	0.00000000	18.37475000	7.19734200
73.39999581	0.00000000	21.06914000	4.87204700
73.59999580	0.00000000	21.06914000	3.70939900
73.79999579	0.00000000	18.37475000	4.08464600
73.99999578	0.00000000	13.76107000	5.93626900
74.19999577	0.00000000	8.37229300	7.80019600
74.39999575	0.00000000	3.75861200	9.00590400
74.59999574	0.00000000	0.97194880	9.38115100
74.79999573	0.00000000	0.22760820	9.00590400
74.99999572	0.00000000	1.34719500	7.84940900
75.19999571	0.00000000	4.41067900	6.36072800
75.39999569	0.00000000	7.86171200	5.29035400
75.59999568	0.00000000	11.02362000	5.70866100
75.79999567	0.00000000	13.67495000	7.98474400
75.99999566	0.00000000	14.83760000	11.00517000
76.19999565	0.00000000	14.13632000	13.69956000
76.39999563	0.00000000	12.64764000	15.23130000
76.59999562	0.00000000	11.06668000	15.23130000
76.79999561	0.00000000	9.52879000	13.65650000
76.99999560	0.00000000	8.37229300	10.49459000
77.19999559	0.00000000	7.99704600	5.89320800
77.39999558	0.00000000	8.32308000	0.97194880
77.59999556	0.00000000	9.06742000	-2.09153500
77.79999555	0.00000000	9.39345400	-2.55905500
77.99999554	0.00000000	9.06742000	-0.97810030
78.19999553	0.00000000	8.28001900	2.55290300
78.39999552	0.00000000	7.52952700	7.93553100
78.59999550	0.00000000	6.74212600	13.65650000
78.79999549	0.00000000	6.45915300	17.88263000
78.99999548	0.00000000	7.20964500	19.50664000
79.19999547	0.00000000	9.11048200	18.71924000
79.39999546	0.00000000	11.02362000	16.01870000
79.59999544	0.00000000	12.60458000	11.38041000
79.79999543	0.00000000	13.71801000	6.40378900
79.99999542	0.00000000	13.76107000	2.12844500
80.19999541	0.00000000	12.93061000	-0.60285430
80.39999540	0.00000000	11.34350000	-1.39640700
80.59999539	0.00000000	8.28001900	-0.64591530
80.79999537	0.00000000	5.29650500	1.71013800
80.99999536	0.00000000	3.67249000	5.15501900
81.19999535	0.00000000	3.29724400	9.00590400
81.39999534	0.00000000	4.09079700	12.11860000
81.59999533	0.00000000	6.41609200	14.11786000
81.79999531	0.00000000	9.44266700	15.27436000
81.99999530	0.00000000	12.18012000	15.27436000
82.19999529	0.00000000	14.09326000	14.16092000
82.39999528	0.00000000	14.88066000	12.58612000
82.59999527	0.00000000	14.09326000	10.58686000
82.79999525	0.00000000	12.18012000	7.89247000
82.99999524	0.00000000	9.48572700	5.15501900
83.19999523	0.00000000	6.87746000	2.82972400
83.39999522	0.00000000	5.62869100	0.87967510
83.59999521	0.00000000	5.57332700	0.17839570
83.79999520	0.00000000	5.57947800	0.92888770
83.99999518	0.00000000	6.41609200	3.29109200
84.19999517	0.00000000	7.90477300	6.72982200
84.39999516	0.00000000	9.44266700	10.62992000
84.59999515	0.00000000	10.55610000	14.11786000
84.79999514	0.00000000	10.59916000	16.81225000
84.99999512	0.00000000	9.95324800	17.92569000
85.19999511	0.00000000	9.90403500	16.76919000
85.39999510	0.00000000	10.23007000	13.69956000
85.59999509	0.00000000	9.90403500	9.43036400
85.79999508	0.00000000	9.95324800	4.82898600
85.99999506	0.00000000	10.59916000	0.97194880
86.19999505	0.00000000	10.59916000	-0.97810030
86.39999504	0.00000000	9.86097400	-0.97810030
86.59999503	0.00000000	9.06742000	0.97194880
86.79999502	0.00000000	7.90477300	4.82898600
86.99999501	0.00000000	6.79133800	9.43036400
87.19999499	0.00000000	6.36687900	13.69956000
87.39999498	0.00000000	6.36687900	16.76919000
87.59999497	0.00000000	6.79133800	17.92569000
87.79999496	0.00000000	7.94783400	16.72613000
87.99999495	0.00000000	9.48572700	13.28125000
88.19999493	0.00000000	11.02362000	8.31077700
88.39999492	0.00000000	12.18012000	3.70939900
88.59999491	0.00000000	12.51230000	0.59670270
88.79999490	0.00000000	11.76181000	-0.55979330
88.99999489	0.00000000	9.90403500	0.64591530
89.19999487	0.00000000	8.37229300	4.08464600
89.39999486	0.00000000	7.52952700	9.05511800
89.59999485	0.00000000	6.74212600	13.61343000
89.79999484	0.00000000	6.41609200	16.35089000
89.99999483	0.00000000	6.79133800	16.76919000
90.19999482	0.00000000	7.90477300	15.18824000
90.39999480	0.00000000	9.06742000	11.74336000
90.59999479	0.00000000	9.86097400	7.14812900
90.79999478	0.00000000	10.64838000	3.29109200
90.99999477	0.00000000	10.97441000	0.55364170
91.19999476	0.00000000	10.64838000	-0.51673230
91.39999474	0.00000000	9.90403500	1.02116100
91.59999473	0.00000000	9.52879000	4.87204700
91.79999472	0.00000000	9.48572700	9.79945900
91.99999471	0.00000000	9.52879000	14.43775000
92.19999470	0.00000000	9.90403500	17.09523000
92.39999468	0.00000000	10.59916000	17.50738000
92.59999467	0.00000000	10.55610000	15.18824000
92.79999466	0.00000000	9.48572700	11.00517000
92.99999465	0.00000000	8.32308000	6.35457700
93.19999464	0.00000000	7.52952700	2.12844500
93.39999463	0.00000000	6.74212600	-0.51673230
93.59999461	0.00000000	6.41609200	-0.51673230
93.79999460	0.00000000	6.79133800	2.12844500
93.99999459	0.00000000	7.94783400	6.35457700
94.19999458	0.00000000	9.52879000	10.95595000
94.39999457	0.00000000	11.48499000	14.76993000
94.59999455	0.00000000	13.76107000	16.30167000
94.79999454	0.00000000	15.25591000	15.23130000
94.99999453	0.00000000	15.25591000	12.53691000
95.19999452	0.00000000	13.71801000	9.05511800
95.39999451	0.00000000	11.02362000	5.19808000
95.59999449	0.00000000	7.90477300	2.17765700
95.79999448	0.00000000	4.83513700	1.01501000
95.99999447	0.00000000	2.50984200	2.12844500
96.19999446	0.00000000	1.75935000	4.77977300
96.39999445	0.00000000	2.50984200	7.89247000
96.59999444	0.00000000	4.87819900	10.96211000
96.79999442	0.00000000	8.37229300	13.28125000
96.99999441	0.00000000	12.60458000	14.03174000
97.19999440	0.00000000	16.41855000	13.32431000
97.39999439	0.00000000	18.37475000	11.38041000
97.59999438	0.00000000	18.37475000	9.09817800
97.79999436	0.00000000	16.46161000	6.77903500
97.99999435	0.00000000	12.97982000	5.24729300
98.19999434	0.00000000	9.11048200	4.82898600
98.39999433	0.00000000	5.21038300	5.19808000
98.59999432	0.00000000	2.13459600	6.31151500
98.79999430	0.00000000	0.59670270	7.47416300
98.99999429	0.00000000	0.97194880	8.26771600
99.19999428	0.00000000	3.29724400	9.05511800
99.39999427	0.00000000	6.74212600	9.43036400
99.59999426	0.00000000	10.64838000	9.47342500
99.79999425	0.00000000	14.09326000	9.47342500
99.99999423	0.00000000	16.46161000	9.51648500
100.19999422	0.00000000	17.21210000	9.89173200
100.39999421	0.00000000	16.46161000	10.62992000
100.59999420	0.00000000	14.09326000	10.95595000
100.79999419	0.00000000	10.69144000	10.62992000
100.99999417	0.00000000	7.20964500	9.79945900
101.19999416	0.00000000	4.87819900	8.63681000
101.39999415	0.00000000	3.62942900	6.68676100
101.59999414	0.00000000	3.25418300	4.87204700
101.79999413	0.00000000	3.62942900	4.08464600
101.99999411	0.00000000	4.83513700	4.82283400
102.19999410	0.00000000	6.79133800	6.36072800
102.39999409	0.00000000	9.48572700	8.35383800
102.59999408	0.00000000	12.13706000	11.00517000
102.79999407	0.00000000	13.71801000	13.32431000
102.99999406	0.00000000	14.13632000	14.45005000
103.19999404	0.00000000	13.76107000	14.43775000
103.39999403	0.00000000	12.55536000	12.49385000
103.59999402	0.00000000	10.64838000	9.47342500
103.79999401	0.00000000	8.32308000	6.36072800
103.99999400	0.00000000	6.41609200	3.66633800
104.19999398	0.00000000	5.25344500	2.12844500
104.39999397	0.00000000	5.21038300	2.12844500
104.59999396	0.00000000	5.94857300	3.66633800
104.79999395	0.00000000	6.74212600	6.36072800
104.99999394	0.00000000	7.94783400	9.42421200
105.19999392	0.00000000	9.48572700	12.11860000
105.39999391	0.00000000	11.02362000	13.65650000
105.59999390	0.00000000	12.13706000	13.69956000
105.79999389	0.00000000	12.13706000	12.53691000
105.99999388	0.00000000	11.02362000	10.62992000
106.19999387	0.00000000	9.52879000	8.31077700
106.39999385	0.00000000	8.37229300	6.40378900
106.59999384	0.00000000	7.94783400	5.19808000
106.79999383	0.00000000	7.94783400	4.87204700
106.99999382	0.00000000	8.32308000	5.61638700
107.19999381	0.00000000	9.11048200	7.51722400
107.39999379	0.00000000	9.86097400	9.38115100
107.59999378	0.00000000	10.64838000	10.58686000
107.79999377	0.00000000	10.97441000	10.95595000
107.99999376	0.00000000	10.64838000	10.58686000
108.19999375	0.00000000	9.86097400	9.42421200
108.39999374	0.00000000	9.11048200	7.89247000
108.59999372	0.00000000	8.28001900	6.36072800
108.79999371	0.00000000	7.52952700	5.19808000
108.99999370	0.00000000	6.79133800	4.82898600
109.19999369	0.00000000	6.83439900	5.24729300
109.39999368	0.00000000	7.94783400	6.77903500
109.59999366	0.00000000	9.44266700	9.00590400
109.79999365	0.00000000	10.59916000	10.53765000
109.99999364	0.00000000	11.02362000	11.00517000
110.19999363	0.00000000	11.06668000	11.00517000
110.39999362	0.00000000	11.02362000	10.58686000
110.59999360	0.00000000	10.59916000	9.42421200
110.79999359	0.00000000	9.48572700	7.89247000
110.99999358	0.00000000	8.37229300	6.36072800
111.19999357	0.00000000	7.94783400	5.19808000
111.39999356	0.00000000	7.90477300	4.82898600
111.59999355	0.00000000	7.94783400	5.19808000
111.79999353	0.00000000	8.32308000	6.31151500
111.99999352	0.00000000	9.11048200	7.47416300
112.19999351	0.00000000	9.86097400	8.26771600
112.39999350	0.00000000	10.64838000	9.05511800
112.59999349	0.00000000	10.97441000	9.43036400
112.79999347	0.00000000	10.64838000	9.47342500
112.99999346	0.00000000	9.90403500	9.47342500
113.19999345	0.00000000	9.52879000	9.47342500
113.39999344	0.00000000	9.48572700	9.43036400
113.59999343	0.00000000	9.48572700	9.05511800
113.79999341	0.00000000	9.48572700	8.31077700
113.99999340	0.00000000	9.48572700	7.93553100
114.19999339	0.00000000	9.48572700	7.89247000
114.39999338	0.00000000	9.48572700	7.84940900
114.59999337	0.00000000	9.48572700	7.47416300
114.79999336	0.00000000	9.48572700	6.72982200
114.99999334	0.00000000	9.48572700	6.35457700
115.19999333	0.00000000	9.48572700	6.35457700
115.39999332	0.00000000	9.48572700	6.72982200
115.59999331	0.00000000	9.48572700	7.51722400
115.79999330	0.00000000	9.48572700	8.26771600
115.99999328	0.00000000	9.48572700	9.09817800
116.19999327	0.00000000	9.44266700	9.84867000
116.39999326	0.00000000	9.06742000	10.58686000
116.59999325	0.00000000	8.32308000	10.58686000
116.79999324	0.00000000	7.99704600	9.89173200
116.99999322	0.00000000	8.32308000	9.47342500
117.19999321	0.00000000	9.06742000	9.00590400
117.39999320	0.00000000	9.48572700	7.89247000
117.59999319	0.00000000	9.90403500	6.77903500
117.79999318	0.00000000	10.64838000	6.35457700
117.99999317	0.00000000	11.02362000	6.31151500
118.19999315	0.00000000	11.02362000	6.35457700
118.39999314	0.00000000	10.64838000	6.77903500
118.59999313	0.00000000	9.86097400	7.89247000
118.79999312	0.00000000	9.06742000	9.00590400
118.99999311	0.00000000	7.90477300	9.47342500
119.19999309	0.00000000	6.79133800	9.84867000
119.39999308	0.00000000	6.41609200	10.21161000
119.59999307	0.00000000	6.74212600	9.84867000
119.79999306	0.00000000	7.52952700	9.47342500
119.99999305	0.00000000	8.32308000	9.05511800
120.19999303	0.00000000	9.52879000	8.31077700
120.39999302	0.00000000	11.02362000	7.93553100
120.59999301	0.00000000	12.18012000	7.84940900
120.79999300	0.00000000	12.55536000	7.51722400
120.99999299	0.00000000	12.18012000	7.14812900
121.19999298	0.00000000	11.06668000	7.51722400
121.39999296	0.00000000	9.90403500	7.84940900
121.59999295	0.00000000	9.06742000	7.89247000
121.79999294	0.00000000	7.90477300	7.93553100
121.99999293	0.00000000	6.79133800	8.31077700
122.19999292	0.00000000	6.41609200	9.05511800
122.39999290	0.00000000	6.79133800	9.43036400
122.59999289	0.00000000	7.90477300	9.47342500
122.79999288	0.00000000	9.06742000	9.47342500
122.99999287	0.00000000	9.86097400	9.47342500
123.19999286	0.00000000	10.64838000	9.43036400
123.39999284	0.00000000	11.06668000	9.05511800
123.59999283	0.00000000	11.44193000	8.31077700
123.79999282	0.00000000	11.81102000	7.89247000
123.99999281	0.00000000	11.44193000	7.51722400
124.19999280	0.00000000	11.02362000	7.14812900
124.39999279	0.00000000	10.23007000	7.51722400
124.59999277	0.00000000	8.74138700	7.84940900
124.79999276	0.00000000	7.94783400	7.89247000
124.99999275	0.00000000	7.48646600	7.89247000
125.19999274	0.00000000	6.79133800	7.93553100
125.39999273	0.00000000	6.79133800	8.31077700
125.59999271	0.00000000	7.52952700	9.05511800
125.79999270	0.00000000	8.32308000	9.43036400
125.99999269	0.00000000	9.48572700	9.47342500
126.19999268	0.00000000	10.59916000	9.47342500
126.39999267	0.00000000	11.02362000	9.43036400
126.59999265	0.00000000	11.06668000	9.05511800
126.79999264	0.00000000	11.02362000	8.31077700
126.99999263	0.00000000	10.64838000	7.93553100
127.19999262	0.00000000	9.86097400	7.89247000
127.39999261	0.00000000	9.06742000	7.89247000
127.59999260	0.00000000	7.90477300	7.89247000
127.79999258	0.00000000	6.83439900	7.89247000
127.99999257	0.00000000	6.79133800	7.89247000
128.19999256	0.00000000	7.52952700	7.93553100
128.39999255	0.00000000	8.32308000	8.31077700
128.59999254	0.00000000	9.48572700	9.05511800
128.79999252	0.00000000	10.59916000	9.38115100
128.99999251	0.00000000	11.02362000	9.05511800
129.19999250	-0.15871060	11.02362000	8.31077700
129.39999249	0.00000000	10.64838000	7.93553100
129.59999248	0.00000000	9.86097400	7.89247000
129.79999246	0.00000000	9.11048200	7.89247000
129.99999245	0.00000000	8.32308000	7.89247000
130.19999244	0.00000000	7.94783400	7.89247000
130.39999243	0.00000000	7.90477300	7.89247000
130.59999242	0.00000000	7.94783400	7.93553100
130.79999241	0.00000000	8.32308000	8.31077700
130.99999239	0.00000000	9.11048200	9.00590400
131.19999238	0.00000000	9.86097400	9.00590400
131.39999237	0.00000000	10.64838000	8.31077700
131.59999236	0.00000000	10.97441000	7.93553100
131.79999235	0.00000000	10.64838000	7.84940900
131.99999233	0.00000000	9.86097400	7.47416300
132.19999232	0.00000000	9.11048200	6.77903500
132.39999231	0.00000000	8.32308000	6.77903500
132.59999230	0.00000000	7.94783400	7.47416300
132.79999229	0.00000000	7.94783400	7.89247000
132.99999227	0.00000000	8.32308000	8.31077700
133.19999226	0.00000000	9.06742000	9.05511800
133.39999225	0.00000000	9.44266700	9.43036400
133.59999224	0.00000000	9.48572700	9.47342500
133.79999223	0.00000000	9.48572700	9.47342500
133.99999222	0.00000000	9.48572700	9.43036400
134.19999220	0.00000000	9.48572700	9.05511800
134.39999219	0.00000000	9.48572700	8.26771600
134.59999218	0.00000000	9.48572700	7.51722400
134.79999217	0.00000000	9.52879000	6.72982200
134.99999216	0.00000000	9.86097400	6.35457700
135.19999214	0.00000000	10.27313000	6.35457700
135.39999213	0.00000000	10.23622000	6.72982200
135.59999212	0.00000000	10.27313000	7.51722400
135.79999211	0.00000000	9.86097400	8.26771600
135.99999210	0.00000000	9.48572700	9.05511800
136.19999208	0.00000000	9.06742000	9.43036400
136.39999207	0.00000000	8.32308000	9.47342500
136.59999206	0.00000000	7.94783400	9.47342500
136.79999205	0.00000000	7.94783400	9.43036400
136.99999204	0.00000000	8.32308000	9.05511800
137.19999203	0.00000000	9.11048200	8.31077700
137.39999201	0.00000000	9.86097400	7.93553100
137.59999200	0.00000000	10.64838000	7.84940900
137.79999199	0.00000000	11.02362000	7.51722400
137.99999198	0.00000000	11.02362000	7.10506800
138.19999197	0.00000000	10.64838000	7.14197800
138.39999195	0.00000000	9.86097400	7.10506800
138.59999194	0.00000000	9.11048200	7.51722400
138.79999193	0.00000000	8.32308000	7.89247000
138.99999192	0.00000000	7.94783400	8.31077700
139.19999191	0.00000000	7.94783400	9.05511800
139.39999189	0.00000000	8.32308000	9.43036400
139.59999188	0.00000000	9.06742000	9.47342500
139.79999187	0.00000000	9.48572700	9.47342500
139.99999186	0.00000000	9.90403500	9.43036400
140.19999185	0.00000000	10.64838000	9.05511800
140.39999184	0.00000000	10.97441000	8.31077700
140.59999182	0.00000000	10.64838000	7.89247000
140.79999181	0.00000000	9.90403500	7.47416300
140.99999180	0.00000000	9.52879000	6.72982200
141.19999179	0.00000000	9.48572700	6.40378900
141.39999178	0.00000000	9.48572700	6.72982200
141.59999176	0.00000000	9.48572700	7.51722400
141.79999175	0.00000000	9.48572700	8.26771600
141.99999174	0.00000000	9.48572700	9.09817800
142.19999173	0.00000000	9.52879000	9.79945900
142.39999172	0.00000000	9.86097400	10.21161000
142.59999170	0.00000000	10.23007000	9.84867000
142.79999169	0.00000000	9.86097400	9.47342500
142.99999168	0.00000000	9.52879000	9.05511800
143.19999167	0.00000000	9.48572700	8.26771600
143.39999166	0.00000000	9.44266700	7.51722400
143.59999165	0.00000000	9.06742000	6.77903500
143.79999163	0.00000000	8.37229300	6.77903500
143.99999162	0.00000000	8.37229300	7.47416300
144.19999161	0.00000000	9.06742000	7.89247000
144.39999160	0.00000000	9.48572700	8.31077700
144.59999159	0.00000000	9.90403500	9.05511800
144.79999157	0.00000000	10.59916000	9.43036400
144.99999156	0.00000000	10.59916000	9.47342500
145.19999155	0.00000000	9.90403500	9.47342500
145.39999154	0.00000000	9.52879000	9.43036400
145.59999153	0.00000000	9.48572700	9.05511800
145.79999151	0.00000000	9.48572700	8.31077700
145.99999150	0.00000000	9.48572700	7.93553100
146.19999149	0.00000000	9.48572700	7.89247000
146.39999148	0.00000000	9.48572700	7.89247000
146.59999147	0.00000000	9.52879000	7.89247000
146.79999146	0.00000000	9.90403500	7.89247000
146.99999144	0.00000000	10.59916000	7.93553100
147.19999143	0.00000000	10.64838000	8.31077700
147.39999142	0.00000000	10.32234000	9.05511800
147.59999141	0.00000000	10.64838000	9.43036400
147.79999140	0.00000000	10.59916000	9.47342500
147.99999138	0.00000000	9.86097400	9.47342500
148.19999137	0.00000000	9.15354300	9.43036400
148.39999136	0.00000000	8.74138700	9.05511800
148.59999135	0.00000000	9.11048200	8.31077700
148.79999134	0.00000000	9.44266700	7.93553100
148.99999132	0.00000000	9.48572700	7.89247000
149.19999131	0.00000000	9.48572700	7.84940900
149.39999130	0.00000000	9.52879000	7.51722400
149.59999129	0.00000000	9.86097400	7.14812900
149.79999128	0.00000000	10.23007000	7.51722400
149.99999127	0.00000000	9.86097400	7.89247000
150.19999125	0.00000000	9.52879000	8.31077700
150.39999124	0.00000000	9.48572700	9.05511800
150.59999123	0.00000000	9.48572700	9.43036400
150.79999122	0.00000000	9.48572700	9.47342500
150.99999121	0.00000000	9.48572700	9.43036400
151.19999119	0.00000000	9.48572700	9.05511800
151.39999118	0.00000000	9.48572700	8.31077700
151.59999117	0.00000000	9.48572700	7.93553100
151.79999116	0.00000000	9.48572700	7.89247000
151.99999115	0.00000000	9.52879000	7.89247000
152.19999113	0.00000000	9.90403500	7.89247000
152.39999112	0.00000000	10.64838000	7.89247000
152.59999111	0.00000000	11.02362000	7.89247000
152.79999110	0.00000000	11.02362000	7.89247000
152.99999109	0.00000000	10.64838000	7.89247000
153.19999108	0.00000000	9.90403500	7.93553100
153.39999106	0.00000000	9.48572700	8.26771600
153.59999105	0.00000000	9.06742000	8.67987200
153.79999104	0.00000000	8.32308000	8.68602300
153.99999103	0.00000000	7.94783400	9.09817800
154.19999102	0.00000000	7.94783400	9.38115100
154.39999100	0.00000000	8.32308000	9.05511800
154.59999099	0.00000000	9.06742000	8.31077700
154.79999098	0.00000000	9.44266700	7.93553100
154.99999097	0.00000000	9.52879000	7.89247000
155.19999096	0.00000000	9.90403500	7.89247000
155.39999094	0.00000000	10.64838000	7.89247000
155.59999093	0.00000000	11.02362000	7.89247000
155.79999092	0.00000000	11.02362000	7.89247000
155.99999091	0.00000000	10.64838000	7.93553100
156.19999090	0.00000000	9.86097400	8.26771600
156.39999089	0.00000000	9.15354300	8.67987200
156.59999087	0.00000000	8.69832600	8.68602300
156.79999086	0.00000000	8.69217500	9.09817800
156.99999085	0.00000000	8.32308000	9.43036400
157.19999084	0.00000000	8.37229300	9.47342500
157.39999083	0.00000000	9.06742000	9.47342500
157.59999081	0.00000000	9.44266700	9.43036400
157.79999080	0.00000000	9.48572700	9.05511800
157.99999079	0.00000000	9.48572700	8.26771600
158.19999078	0.00000000	9.48572700	7.56028500
158.39999077	0.00000000	9.52879000	7.14812900
158.59999075	0.00000000	9.86097400	7.51722400
158.79999074	0.00000000	10.23007000	7.84940900
158.99999073	0.00000000	9.86097400	7.89247000
159.19999072	0.00000000	9.52879000	7.93553100
159.39999071	0.00000000	9.48572700	8.31077700
159.59999070	0.00000000	9.48572700	9.05511800
159.79999068	0.00000000	9.48572700	9.43036400
159.99999067	0.00000000	9.48572700	9.47342500
160.19999066	0.00000000	9.48572700	9.43036400
160.39999065	0.00000000	9.48572700	9.05511800
160.59999064	0.00000000	9.48572700	8.31077700
160.79999062	0.00000000	9.48572700	7.93553100
160.99999061	0.00000000	9.48572700	7.89247000
161.19999060	0.00000000	9.48572700	7.89247000
161.39999059	0.00000000	9.48572700	7.89247000
161.59999058	-0.15871060	9.48572700	7.89247000
161.79999056	0.00000000	9.48572700	7.89247000
161.99999055	0.00000000	9.48572700	7.93553100
162.19999054	0.00000000	9.48572700	8.31077700
162.39999053	0.00000000	9.48572700	9.05511800
162.59999052	0.00000000	9.48572700	9.38115100
162.79999051	0.00000000	9.48572700	9.09817800
162.99999049	0.00000000	9.48572700	8.68602300
163.19999048	0.00000000	9.48572700	8.67987200
163.39999047	0.00000000	9.48572700	8.26771600
163.59999046	0.00000000	9.48572700	7.98474400
163.79999045	0.00000000	9.48572700	8.26771600
163.99999043	0.00000000	9.48572700	8.63681000
164.19999042	0.00000000	9.48572700	8.26771600
164.39999041	0.00000000	9.48572700	7.93553100
164.59999040	0.00000000	9.52879000	7.89247000
164.79999039	0.00000000	9.86097400	7.89247000
164.99999037	0.00000000	10.23007000	7.89247000
165.19999036	0.00000000	9.86097400	7.89247000
165.39999035	0.00000000	9.52879000	7.93553100
165.59999034	0.00000000	9.48572700	8.26771600
165.79999033	0.00000000	9.48572700	8.63681000
165.99999032	0.00000000	9.48572700	8.26771600
166.19999030	0.00000000	9.48572700	7.93553100
166.39999029	0.00000000	9.48572700	7.89247000
166.59999028	0.00000000	9.48572700	7.89247000
166.79999027	0.00000000	9.48572700	7.89247000
166.99999026	0.00000000	9.48572700	7.89247000
167.19999024	0.00000000	9.48572700	7.89247000
167.39999023	0.00000000	9.48572700	7.89247000
167.59999022	0.00000000	9.48572700	7.89247000
167.79999021	0.00000000	9.48572700	7.89247000
167.99999020	0.00000000	9.48572700	7.89247000
168.19999018	0.00000000	9.48572700	7.89247000
168.39999017	0.00000000	9.48572700	7.89247000
168.59999016	0.00000000	9.48572700	7.89247000
168.79999015	0.00000000	9.48572700	7.89247000
168.99999014	0.00000000	9.48572700	7.89247000
169.19999013	0.00000000	9.48572700	7.89247000
169.39999011	0.00000000	9.48572700	7.93553100
169.59999010	0.00000000	9.48572700	8.26771600
169.79999009	0.00000000	9.48572700	8.63681000
169.99999008	0.00000000	9.48572700	8.26771600
170.19999007	0.00000000	9.48572700	7.93553100
170.39999005	0.00000000	9.48572700	7.89247000
170.59999004	0.00000000	9.48572700	7.89247000
170.79999003	0.00000000	9.48572700	7.89247000
170.99999002	0.00000000	9.48572700	7.89247000
171.19999001	0.00000000	9.52879000	7.89247000
171.39998999	0.00000000	9.86097400	7.89247000
171.59998998	0.00000000	10.23007000	7.89247000
171.79998997	0.00000000	9.86097400	7.89247000
171.99998996	0.00000000	9.52879000	7.89247000
172.19998995	0.00000000	9.48572700	7.89247000
172.39998994	0.00000000	9.48572700	7.89247000
172.59998992	0.00000000	9.44266700	7.89247000
172.79998991	0.00000000	9.11048200	7.89247000
172.99998990	0.00000000	8.74138700	7.89247000
173.19998989	0.00000000	9.11048200	7.89247000
173.39998988	0.00000000	9.44266700	7.89247000
173.59998986	0.00000000	9.48572700	7.89247000
173.79998985	0.00000000	9.48572700	7.89247000
173.99998984	0.00000000	9.48572700	7.89247000
174.19998983	0.00000000	9.48572700	7.89247000
174.39998982	0.00000000	9.48572700	7.89247000
174.59998980	0.00000000	9.48572700	7.89247000
174.79998979	0.00000000	9.48572700	7.89247000
174.99998978	0.00000000	9.48572700	7.89247000
175.19998977	0.00000000	9.52879000	7.93553100
175.39998976	0.00000000	9.86097400	8.26771600
175.59998975	0.00000000	10.23007000	8.63681000
175.79998973	0.00000000	9.86097400	8.26771600
175.99998972	0.00000000	9.52879000	7.93553100
176.19998971	0.00000000	9.48572700	7.89247000
176.39998970	0.00000000	9.48572700	7.89247000
176.59998969	0.00000000	9.48572700	7.89247000
176.79998967	0.00000000	9.48572700	7.89247000
176.99998966	0.00000000	9.48572700	7.89247000
177.19998965	0.00000000	9.48572700	7.89247000
177.39998964	0.00000000	9.48572700	7.89247000
177.59998963	0.00000000	9.48572700	7.89247000
177.79998961	0.00000000	9.48572700	7.89247000
177.99998960	0.00000000	9.48572700	7.89247000
178.19998959	0.00000000	9.48572700	7.89247000
178.39998958	0.00000000	9.48572700	7.89247000
178.59998957	0.00000000	9.48572700	7.89247000
178.79998956	0.00000000	9.48572700	7.93553100
178.99998954	0.00000000	9.48572700	8.26771600
179.19998953	0.00000000	9.52879000	8.67987200
179.39998952	0.00000000	9.86097400	8.64296200
179.59998951	0.00000000	10.23007000	8.67987200
179.79998950	0.00000000	9.90403500	8.26771600
179.99998948	0.00000000	9.90403500	7.93553100
180.19998947	0.00000000	10.23007000	7.89247000
180.39998946	0.00000000	9.86097400	7.89247000
180.59998945	0.00000000	9.52879000	7.89247000
180.79998944	0.00000000	9.48572700	7.89247000
180.99998942	0.00000000	9.48572700	7.89247000
181.19998941	0.00000000	9.48572700	7.89247000
181.39998940	0.00000000	9.44266700	7.93553100
181.59998939	0.00000000	9.11048200	8.26771600
181.79998938	0.00000000	8.74138700	8.67987200
181.99998937	0.00000000	9.11048200	8.68602300
182.19998935	0.00000000	9.44266700	9.05511800
182.39998934	0.00000000	9.48572700	9.00590400
182.59998933	0.00000000	9.48572700	8.31077700
182.79998932	0.00000000	9.48572700	7.93553100
182.99998931	0.00000000	9.48572700	7.89247000
183.19998929	0.00000000	9.48572700	7.89247000
183.39998928	0.00000000	9.48572700	7.89247000
183.59998927	0.00000000	9.48572700	7.89247000
183.79998926	0.00000000	9.48572700	7.89247000
183.99998925	0.00000000	9.48572700	7.93553100
184.19998923	0.00000000	9.48572700	8.31077700
184.39998922	0.00000000	9.48572700	9.05511800
184.59998921	0.00000000	9.48572700	9.43036400
184.79998920	0.00000000	9.48572700	9.47342500
184.99998919	0.00000000	9.48572700	9.47342500
185.19998918	0.00000000	9.48572700	9.43036400
185.39998916	0.00000000	9.48572700	9.05511800
185.59998915	0.00000000	9.52879000	8.31077700
185.79998914	0.00000000	9.86097400	7.93553100
185.99998913	0.00000000	10.23007000	7.89247000
186.19998912	0.00000000	9.86097400	7.89247000
186.39998910	0.00000000	9.52879000	7.89247000
186.59998909	0.00000000	9.48572700	7.89247000
186.79998908	0.00000000	9.48572700	7.89247000
186.99998907	0.00000000	9.48572700	7.93553100
187.19998906	0.00000000	9.48572700	8.31077700
187.39998904	0.00000000	9.48572700	9.05511800
187.59998903	0.00000000	9.48572700	9.43036400
187.79998902	0.00000000	9.48572700	9.47342500
187.99998901	0.00000000	9.48572700	9.43036400
188.19998900	0.00000000	9.52879000	9.05511800
188.39998899	0.00000000	9.86097400	8.31077700
188.59998897	0.00000000	10.23007000	7.93553100
188.79998896	0.00000000	9.86097400	7.89247000
188.99998895	0.00000000	9.52879000	7.89247000
189.19998894	0.00000000	9.48572700	7.89247000
189.39998893	0.00000000	9.48572700	7.89247000
189.59998891	0.00000000	9.48572700	7.89247000
189.79998890	0.00000000	9.48572700	7.89247000
189.99998889	0.00000000	9.48572700	7.93553100
190.19998888	0.00000000	9.48572700	8.26771600
190.39998887	0.00000000	9.48572700	8.67987200
190.59998885	0.00000000	9.48572700	8.68602300
190.79998884	0.00000000	9.48572700	9.05511800
190.99998883	0.00000000	9.48572700	9.00590400
191.19998882	0.00000000	9.48572700	8.31077700
191.39998881	0.00000000	9.48572700	7.93553100
191.59998880	0.00000000	9.48572700	7.89247000
191.79998878	0.00000000	9.48572700	7.89247000
191.99998877	0.00000000	9.48572700	7.89247000
192.19998876	0.00000000	9.48572700	7.89247000
192.39998875	0.00000000	9.48572700	7.89247000
192.59998874	0.00000000	9.48572700	7.89247000
192.79998872	0.00000000	9.48572700	7.93553100
192.99998871	0.00000000	9.48572700	8.26771600
193.19998870	0.00000000	9.48572700	8.63681000
193.39998869	0.00000000	9.48572700	8.26771600
193.59998868	0.00000000	9.48572700	7.98474400
193.79998866	0.00000000	9.48572700	8.31077700
193.99998865	-0.15871060	9.48572700	9.05511800
194.19998864	0.00000000	9.48572700	9.43036400
194.39998863	0.00000000	9.48572700	9.43036400
194.59998862	0.00000000	9.48572700	9.09817800
194.79998861	0.00000000	9.48572700	8.68602300
194.99998859	0.00000000	9.48572700	8.67987200
195.19998858	0.00000000	9.48572700	8.26771600
195.39998857	0.00000000	9.48572700	7.93553100
195.59998856	0.00000000	9.48572700	7.89247000
195.79998855	0.00000000	9.48572700	7.89247000
195.99998853	0.00000000	9.48572700	7.89247000
