Time	Channel A	Channel B	Channel C
(us)	(V)	(mV)	(mV)

-4.59999956	0.00000000	7.90477300	7.89247000
-4.39999957	0.00000000	7.90477300	7.89247000
-4.19999958	0.00000000	7.90477300	7.89247000
-3.99999959	0.00000000	7.90477300	7.89247000
-3.79999960	0.00000000	7.90477300	7.89247000
-3.59999962	0.00000000	7.90477300	7.89247000
-3.39999963	0.00000000	7.90477300	7.89247000
-3.19999964	0.00000000	7.90477300	7.89247000
-2.99999965	0.00000000	7.90477300	7.89247000
-2.79999966	0.00000000	7.90477300	7.89247000
-2.59999968	0.00000000	7.90477300	7.89247000
-2.39999969	0.00000000	7.90477300	7.89247000
-2.19999970	0.00000000	7.90477300	7.89247000
-1.99999971	0.00000000	7.90477300	7.89247000
-1.79999972	0.00000000	7.90477300	7.89247000
-1.59999973	0.00000000	7.90477300	7.89247000
-1.39999975	0.00000000	7.86171200	7.89247000
-1.19999976	0.00000000	7.52952700	7.89247000
-0.99999977	0.00000000	7.16043300	7.89247000
-0.79999978	0.00000000	7.52952700	7.89247000
-0.59999979	0.00000000	7.86171200	7.89247000
-0.39999981	0.00000000	7.90477300	7.89247000
-0.19999982	0.47736220	7.90477300	7.89247000
0.00000017	0.79601380	7.90477300	7.89247000
0.20000016	0.95533960	7.90477300	7.89247000
0.40000015	0.95533960	7.90477300	7.89247000
0.60000013	0.63668800	7.90477300	7.89247000
0.80000012	0.00000000	7.90477300	7.89247000
1.00000011	-0.95533960	7.90477300	7.89247000
1.20000010	-1.91129400	7.90477300	7.89247000
1.40000009	-2.70792300	7.90477300	7.89247000
1.60000008	-2.70792300	7.90477300	7.89247000
1.80000006	-2.07062000	7.90477300	7.89247000
2.00000005	-0.47736220	7.90477300	7.89247000
2.20000004	1.59264300	7.90477300	7.89247000
2.40000003	3.66326300	7.90477300	7.89247000
2.60000002	4.93786900	7.90477300	7.89247000
2.80000000	5.25652100	7.90477300	7.84940900
2.99999999	4.14124000	7.90477300	7.51722400
3.19999998	1.59264300	7.90477300	7.14812900
3.39999997	-1.75196900	7.90477300	7.51722400
3.59999996	-4.93786900	7.90477300	7.84940900
3.79999994	-7.32714100	7.90477300	7.89247000
3.99999993	-7.96444400	7.90477300	7.93553100
4.19999992	-6.53112700	7.90477300	8.31077700
4.39999991	-3.34522600	7.90477300	9.00590400
4.59999990	0.95533960	7.90477300	9.00590400
4.79999989	5.25652100	7.90477300	8.31077700
4.99999987	8.44242100	7.90477300	7.89247000
5.19999986	9.39837600	7.90477300	7.47416300
5.39999985	8.12377000	7.90477300	6.72982200
5.59999984	4.77854300	7.86171200	6.35457700
5.79999983	0.15871060	7.48646600	6.35457700
5.99999981	-4.61921700	6.79133800	6.72982200
6.19999980	-8.12377000	6.79133800	7.47416300
6.39999979	-9.55770200	7.48646600	7.84940900
6.59999978	-8.60174700	7.86171200	7.89247000
6.79999977	-5.57517200	7.90477300	7.89247000
6.99999975	-1.43331700	7.90477300	7.89247000
7.19999974	3.02657500	7.90477300	7.89247000
7.39999973	6.21247500	7.90477300	7.89247000
7.59999972	7.64579200	7.90477300	7.89247000
7.79999971	7.16781500	7.90477300	7.84940900
7.99999970	5.09719500	7.90477300	7.51722400
8.19999968	1.91129400	7.90477300	7.14812900
8.39999967	-1.43331700	7.90477300	7.51722400
8.59999966	-3.82258900	7.90477300	7.84940900
8.79999965	-5.09719500	7.90477300	7.89247000
8.99999964	-4.93786900	7.90477300	7.89247000
9.19999962	-3.66326300	7.90477300	7.89247000
9.39999961	-1.75196900	7.90477300	7.89247000
9.59999960	0.15871060	7.90477300	7.89247000
9.79999959	1.75196900	7.90477300	7.89247000
9.99999958	2.38927200	7.90477300	7.89247000
10.19999956	2.38927200	7.86171200	7.89247000
10.39999955	1.91129400	7.52952700	7.89247000
10.59999954	0.95533960	7.16043300	7.84940900
10.79999953	0.15871060	7.52952700	7.51722400
10.99999952	-0.47736220	7.86171200	7.14812900
11.19999951	-0.95533960	7.90477300	7.51722400
11.39999949	-0.95533960	7.90477300	7.84940900
11.59999948	-0.79601380	7.90477300	7.89247000
11.79999947	-0.63668800	7.90477300	7.89247000
11.99999946	-0.31803640	7.90477300	7.89247000
12.19999945	-0.15871060	7.90477300	7.89247000
12.39999943	-0.15871060	7.90477300	7.89247000
12.59999942	0.00000000	7.90477300	7.89247000
12.79999941	0.00000000	7.90477300	7.89247000
12.99999940	0.00000000	7.90477300	7.89247000
13.19999939	0.00000000	7.90477300	7.89247000
13.39999937	0.00000000	7.90477300	7.89247000
13.59999936	0.00000000	7.90477300	7.89247000
13.79999935	0.00000000	7.90477300	7.89247000
13.99999934	-0.15871060	7.90477300	7.89247000
14.19999933	-0.15871060	7.90477300	7.89247000
14.39999932	-0.15871060	7.90477300	7.89247000
14.59999930	-0.15871060	7.86171200	7.84940900
14.79999929	0.00000000	7.52952700	7.51722400
14.99999928	0.00000000	7.16043300	7.14812900
15.19999927	0.00000000	7.52952700	7.51722400
15.39999926	0.00000000	7.86171200	7.84940900
15.59999924	0.00000000	7.90477300	7.89247000
15.79999923	0.00000000	7.90477300	7.89247000
15.99999922	0.00000000	7.90477300	7.89247000
16.19999921	0.00000000	7.90477300	7.89247000
16.39999920	-0.15871060	7.90477300	7.89247000
16.59999919	0.00000000	7.90477300	7.89247000
16.79999917	-0.15871060	7.94783400	7.89247000
16.99999916	0.00000000	8.32308000	7.89247000
17.19999915	0.00000000	9.06742000	7.89247000
17.39999914	0.00000000	9.44266700	7.89247000
17.59999913	0.00000000	9.48572700	7.89247000
17.79999911	0.00000000	9.44266700	7.89247000
17.99999910	0.00000000	9.01820900	7.89247000
18.19999909	0.00000000	7.86171200	7.89247000
18.39999908	0.00000000	6.32381900	7.89247000
18.59999907	0.00000000	4.74286400	7.84940900
18.79999905	0.00000000	3.25418300	7.51722400
18.99999904	0.00000000	2.46678100	7.10506800
19.19999903	0.00000000	2.92199800	7.14197800
19.39999902	0.00000000	4.50910400	7.10506800
19.59999901	0.00000000	7.99704600	7.51722400
19.79999900	0.00000000	12.18012000	7.84940900
19.99999898	0.00000000	15.71727000	7.89247000
20.19999897	0.00000000	18.41781000	7.89247000
20.39999896	0.00000000	19.44513000	7.89247000
20.59999895	0.00000000	17.43971000	7.89247000
20.79999894	0.00000000	12.05093000	7.89247000
20.99999892	0.00000000	4.69980300	7.89247000
21.19999891	0.00000000	-3.02657500	7.89247000
21.39999890	0.00000000	-9.58415200	7.89247000
21.59999889	0.00000000	-12.98597000	7.89247000
21.79999888	0.00000000	-12.14321000	7.84940900
21.99999886	0.00000000	-6.24384800	7.51722400
22.19999885	0.00000000	4.18307100	7.14812900
22.39999884	0.00000000	16.92298000	7.51722400
22.59999883	0.00000000	28.88779000	7.84940900
22.79999882	0.00000000	37.35236000	7.89247000
22.99999881	0.00000000	39.96678000	7.89247000
23.19999879	0.00000000	35.21776000	7.93553100
23.39999878	0.00000000	23.21604000	8.31077700
23.59999877	0.00000000	6.18848400	9.05511800
23.79999876	0.00000000	-11.91560000	9.43036400
23.99999875	0.00000000	-26.93774000	9.43036400
24.19999873	0.00000000	-34.57800000	9.05511800
24.39999872	0.00000000	-32.62180000	8.26771600
24.59999871	0.00000000	-20.98917000	7.47416300
24.79999870	0.00000000	-2.00541300	6.26845500
24.99999869	0.00000000	20.37401000	4.73671200
25.19999867	0.00000000	41.21555000	3.24803100
25.39999866	0.00000000	55.03814000	2.50369100
25.59999865	0.00000000	58.52608000	3.29109200
25.79999864	0.00000000	50.33833000	5.24729300
25.99999863	0.00000000	32.19119000	8.35998900
26.19999862	0.00000000	7.86171200	12.21087000
26.39999860	0.00000000	-16.84301000	15.69882000
26.59999859	0.00000000	-36.15895000	18.39321000
26.79999858	0.00000000	-45.78617000	19.42052000
26.99999857	0.00000000	-43.04257000	17.46432000
27.19999856	0.00000000	-28.42643000	12.40773000
27.39999854	0.00000000	-5.67790300	5.47490100
27.59999853	0.00000000	19.40207000	-2.27608300
27.79999852	0.00000000	41.12328000	-8.78444900
27.99999851	0.00000000	55.03814000	-12.63533000
28.19999850	0.00000000	58.52608000	-12.54921000
28.39999848	0.00000000	50.43061000	-7.85556000
28.59999847	0.00000000	33.12008000	1.06422200
28.79999846	0.00000000	11.11590000	12.67840000
28.99999845	0.00000000	-10.56225000	24.57554000
29.19999844	0.00000000	-27.22072000	33.81520000
29.39999843	0.00000000	-35.78371000	37.62918000
29.59999841	0.00000000	-34.66412000	35.26082000
29.79999840	0.00000000	-24.66166000	26.29183000
29.99999839	0.00000000	-8.42150500	12.07554000
30.19999838	-0.15871060	10.51304000	-3.76476400
30.39999837	0.00000000	27.90969000	-17.66117000
30.59999835	0.00000000	39.91757000	-26.94390000
30.79999834	0.00000000	44.24212000	-29.18307000
30.99999833	0.00000000	40.47121000	-23.73892000
31.19999832	0.00000000	30.46875000	-10.96826000
31.39999831	0.00000000	16.87992000	6.36072800
31.59999829	0.00000000	2.17765700	24.10802000
31.79999828	0.00000000	-10.56225000	38.46580000
31.99999827	0.00000000	-18.33169000	46.55511000
32.19999826	0.00000000	-19.91265000	46.91806000
32.39999825	0.00000000	-15.35433000	38.79183000
32.59999824	0.00000000	-6.14542300	24.15723000
32.79999822	0.00000000	4.69980300	6.36072800
32.99999821	0.00000000	15.21284000	-11.01132000
33.19999820	0.00000000	23.67741000	-24.16338000
33.39999819	0.00000000	27.90969000	-30.38878000
33.59999818	0.00000000	26.83932000	-28.85088000
33.79999816	0.00000000	21.48745000	-19.93110000
33.99999815	0.00000000	13.76107000	-5.29650500
34.19999814	0.00000000	5.25344500	11.70029000
34.39999813	0.00000000	-2.05462600	27.17766000
34.59999812	0.00000000	-6.28690900	38.37352000
34.79999810	0.00000000	-6.37303100	42.60580000
34.99999809	0.00000000	-2.93430100	38.79183000
35.19999808	0.00000000	2.46678100	28.43258000
35.39999807	0.00000000	9.01820900	14.16708000
35.59999806	0.00000000	14.74532000	-0.51673230
35.79999805	0.00000000	17.86417000	-12.50000000
35.99999803	0.00000000	17.90723000	-19.46973000
36.19999802	0.00000000	15.21284000	-19.84498000
36.39999801	0.00000000	10.59916000	-13.70571000
36.59999800	0.00000000	5.25344500	-2.60211600
36.79999799	0.00000000	1.02116100	10.07628000
36.99999797	0.00000000	-0.93503930	20.85999000
37.19999796	0.00000000	-0.55979330	27.45448000
37.39999795	0.00000000	2.13459600	28.20497000
37.59999794	0.00000000	6.36687900	23.27141000
37.79999793	0.00000000	11.02362000	14.07480000
37.99999791	0.00000000	15.21284000	3.75861200
38.19999790	0.00000000	17.53199000	-4.69365100
38.39999789	0.00000000	17.16289000	-8.92593500
38.59999788	0.00000000	14.88066000	-7.76328700
38.79999787	0.00000000	11.02362000	-1.67322800
38.99999786	0.00000000	6.79133800	7.51722400
39.19999784	0.00000000	3.25418300	16.67692000
39.39999783	0.00000000	0.51058070	23.17913000
39.59999782	0.00000000	-0.98425190	24.71703000
39.79999781	0.00000000	-0.60900590	20.90305000
39.99999780	0.00000000	1.67322800	13.23819000
40.19999778	0.00000000	4.78592500	3.62327700
40.39999777	0.00000000	8.32308000	-5.16117100
40.59999776	0.00000000	12.18012000	-10.54995000
40.79999775	0.00000000	15.25591000	-10.92520000
40.99999774	0.00000000	16.83686000	-6.32381900
41.19999772	0.00000000	16.83686000	2.12844500
41.39999771	0.00000000	15.29897000	12.11860000
41.59999770	0.00000000	12.55536000	20.95226000
41.79999769	0.00000000	9.06742000	26.34104000
41.99999768	0.00000000	5.21038300	26.71629000
42.19999767	0.00000000	2.13459600	22.15797000
42.39999765	0.00000000	0.51058070	14.07480000
42.59999764	0.00000000	0.13533460	4.87204700
42.79999763	0.00000000	0.92888770	-3.21112200
42.99999762	0.00000000	3.25418300	-7.85556000
43.19999761	0.00000000	6.28075700	-8.27386800
43.39999759	0.00000000	8.97514600	-4.87819900
43.59999758	0.00000000	10.59916000	1.24877000
43.79999757	0.00000000	11.44193000	7.80019600
43.99999756	0.00000000	12.18012000	13.61343000
44.19999755	0.00000000	12.18012000	17.46432000
44.39999753	0.00000000	11.48499000	18.30093000
44.59999752	0.00000000	11.06668000	16.81225000
44.79999751	0.00000000	10.69144000	13.69956000
44.99999750	0.00000000	10.27928000	9.47342500
45.19999749	0.00000000	10.23007000	5.24729300
45.39999748	0.00000000	9.35039300	2.17765700
45.59999746	0.00000000	7.43725300	0.97194880
45.79999745	0.00000000	4.69980300	1.66707700
45.99999744	0.00000000	1.62401600	3.19881900
46.19999743	0.00000000	-1.02731300	5.19808000
46.39999742	0.00000000	-2.14074800	7.89247000
46.59999740	0.00000000	-0.98425190	10.53765000
46.79999739	0.00000000	2.17765700	12.11860000
46.99999738	0.00000000	7.25270600	12.53691000
47.19999737	0.00000000	13.76107000	12.11860000
47.39999736	0.00000000	19.53125000	10.53765000
47.59999734	0.00000000	23.02534000	7.89247000
47.79999733	0.00000000	23.72047000	5.19808000
47.99999732	0.00000000	20.55856000	3.24803100
48.19999731	0.00000000	13.67495000	2.08538400
48.39999730	0.00000000	5.16117100	2.12844500
48.59999729	0.00000000	-2.93430100	3.66633800
48.79999727	0.00000000	-9.11663300	6.36072800
48.99999726	0.00000000	-11.40502000	9.42421200
49.19999725	0.00000000	-9.44881800	12.16781000
49.39999724	0.00000000	-3.26033400	14.07480000
49.59999723	0.00000000	5.99163300	14.81299000
49.79999721	0.00000000	15.63115000	13.65650000
49.99999720	0.00000000	23.72047000	11.00517000
50.19999719	0.00000000	27.90969000	7.84940900
50.39999718	0.00000000	26.79626000	4.36146600
50.59999717	0.00000000	21.02608000	0.92888770
50.79999715	0.00000000	12.18012000	-0.93503930
50.99999714	0.00000000	2.55290300	-0.60285430
51.19999713	0.00000000	-5.12426100	1.71013800
51.39999712	0.00000000	-9.03051100	5.19808000
51.59999711	0.00000000	-8.28617100	9.47342500
51.79999710	0.00000000	-3.63558100	13.65650000
51.99999708	0.00000000	4.09079700	16.35089000
52.19999707	0.00000000	13.25664000	16.71998000
52.39999706	0.00000000	20.51550000	14.85605000
52.59999705	0.00000000	23.63435000	11.38041000
52.79999704	0.00000000	22.13952000	7.56028500
52.99999702	0.00000000	16.79380000	4.03543200
53.19999701	0.00000000	9.48572700	1.75319900
53.39999700	0.00000000	2.17765700	0.92888770
53.59999699	0.00000000	-3.21112200	1.75319900
53.79999698	0.00000000	-5.12426100	3.99237200
53.99999696	0.00000000	-3.21112200	7.05585600
54.19999695	0.00000000	2.13459600	9.38115100
54.39999694	0.00000000	9.01820900	10.96211000
54.59999693	0.00000000	15.16363000	11.70029000
54.79999692	0.00000000	19.02067000	10.91289000
54.99999691	0.00000000	19.44513000	9.05511800
55.19999689	0.00000000	16.74459000	6.77903500
55.39999688	0.00000000	11.76181000	5.29035400
55.59999687	0.00000000	5.62869100	5.29035400
55.79999686	0.00000000	0.64591530	6.77903500
55.99999685	0.00000000	-2.09768700	9.05511800
56.19999683	0.00000000	-2.09768700	10.91289000
56.39999682	0.00000000	0.59670270	11.70029000
56.59999681	0.00000000	5.21038300	10.91289000
56.79999680	0.00000000	10.55610000	9.00590400
56.99999679	0.00000000	14.78838000	6.26845500
57.19999677	0.00000000	16.74459000	3.19881900
57.39999676	0.00000000	16.41855000	0.55364170
57.59999675	0.00000000	14.09326000	-0.51673230
57.79999674	0.00000000	10.64838000	1.02116100
57.99999673	0.00000000	6.74212600	4.87204700
58.19999672	0.00000000	3.34030500	9.84867000
58.39999670	0.00000000	1.39640700	14.85605000
58.59999669	0.00000000	1.75935000	18.30093000
58.79999668	0.00000000	3.62942900	19.46358000
58.99999667	0.00000000	6.32381900	17.83957000
59.19999666	0.00000000	9.01820900	13.23819000
59.39999664	0.00000000	10.97441000	6.72982200
59.59999663	0.00000000	12.13706000	0.55364170
59.79999662	0.00000000	12.13706000	-4.09079700
59.99999661	0.00000000	10.97441000	-6.32381900
60.19999660	0.00000000	9.11048200	-4.78592500
60.39999658	0.00000000	7.16043300	0.22145670
60.59999657	0.00000000	6.04084600	7.14812900
60.79999656	0.00000000	5.62869100	14.85605000
60.99999655	0.00000000	6.41609200	20.95226000
61.19999654	0.00000000	7.86171200	23.68971000
61.39999653	0.00000000	9.06742000	22.53322000
61.59999651	0.00000000	9.81791200	17.88263000
61.79999650	0.00000000	10.18086000	10.58686000
61.99999649	0.00000000	9.44266700	2.50369100
62.19999648	0.00000000	8.32308000	-4.04773600
62.39999647	0.00000000	7.48646600	-7.90477300
62.59999645	0.00000000	6.32381900	-7.90477300
62.79999644	0.00000000	5.21038300	-4.09694900
62.99999643	0.00000000	4.87819900	2.08538400
63.19999642	0.00000000	5.62869100	9.42421200
63.39999641	0.00000000	7.52952700	16.35089000
63.59999639	0.00000000	9.44266700	20.99532000
63.79999638	0.00000000	10.97441000	22.52707000
63.99999637	0.00000000	11.76181000	20.62008000
64.19999636	0.00000000	11.34966000	15.64960000
64.39999635	0.00000000	10.23007000	9.51648500
64.59999634	0.00000000	8.28001900	3.62327700
64.79999632	0.00000000	6.41609200	-1.35334600
64.99999631	0.00000000	5.21038300	-4.45374000
65.19999630	0.00000000	4.83513700	-4.46604300
65.39999629	0.00000000	5.21038300	-2.22687000
65.59999628	0.00000000	6.36687900	1.66707700
65.79999626	0.00000000	7.86171200	6.26845500
65.99999625	0.00000000	9.01820900	10.58686000
66.19999624	0.00000000	9.44266700	14.07480000
66.39999623	0.00000000	9.44266700	16.43701000
66.59999622	0.00000000	9.01820900	17.23056000
66.79999620	0.00000000	7.86171200	16.85531000
66.99999619	0.00000000	6.36687900	15.27436000
67.19999618	0.00000000	5.25344500	12.58612000
67.39999617	0.00000000	5.29650500	9.42421200
67.59999616	0.00000000	6.79133800	5.93626900
67.79999615	0.00000000	9.11048200	2.41141700
67.99999613	0.00000000	11.39887000	-0.28297240
68.19999612	0.00000000	13.29970000	-2.22687000
68.39999611	0.00000000	13.63189000	-2.55905500
68.59999610	0.00000000	12.13706000	-1.02116100
68.79999609	0.00000000	9.39345400	2.08538400
68.99999607	0.00000000	5.90551100	6.40378900
69.19999606	0.00000000	2.04847400	11.42347000
69.39999605	0.00000000	-0.98425190	16.39395000
69.59999604	0.00000000	-2.09768700	19.46358000
69.79999603	0.00000000	-0.55979330	19.88189000
69.99999601	0.00000000	3.25418300	17.97490000
70.19999600	0.00000000	7.94783400	14.07480000
70.39999599	0.00000000	12.97982000	9.00590400
70.59999598	0.00000000	17.57505000	3.24803100
70.79999597	0.00000000	19.86343000	-1.72244100
70.99999596	0.00000000	19.48819000	-4.04773600
71.19999594	0.00000000	16.36934000	-3.71555100
71.39999593	0.00000000	10.97441000	-1.02116100
71.59999592	0.00000000	4.83513700	3.24803100
71.79999591	0.00000000	-0.60900590	8.26771600
71.99999590	0.00000000	-4.05388800	13.28125000
72.19999588	0.00000000	-4.84128900	16.72613000
72.39999587	0.00000000	-2.51599400	17.88263000
72.59999586	0.00000000	2.09153500	16.39395000
72.79999585	0.00000000	7.90477300	12.96137000
72.99999584	0.00000000	13.67495000	9.14124000
73.19999582	0.00000000	17.95029000	5.66560000
73.39999581	0.00000000	19.90650000	3.70939900
73.59999580	0.00000000	19.48819000	3.29109200
73.79999579	0.00000000	16.41855000	4.03543200
73.99999578	0.00000000	11.44193000	5.93626900
74.19999577	0.00000000	6.41609200	7.80019600
74.39999575	0.00000000	2.13459600	8.96284400
74.59999574	0.00000000	-0.55979330	8.96284400
74.79999573	0.00000000	-0.98425190	7.84940900
74.99999572	0.00000000	0.55364170	6.36072800
75.19999571	0.00000000	3.62942900	5.19808000
75.39999569	0.00000000	7.48646600	4.87204700
75.59999568	0.00000000	10.93135000	5.66560000
75.79999567	0.00000000	13.25664000	7.98474400
75.99999566	0.00000000	13.67495000	11.00517000
76.19999565	0.00000000	12.60458000	13.69956000
76.39999563	0.00000000	11.06668000	15.23130000
76.59999562	0.00000000	9.48572700	15.18824000
76.79999561	0.00000000	7.94783400	13.23819000
76.99999560	0.00000000	6.83439900	9.38115100
77.19999559	0.00000000	6.79133800	4.77977300
77.39999558	0.00000000	7.48646600	0.51058070
77.59999556	0.00000000	7.86171200	-2.51599400
77.79999555	0.00000000	7.86171200	-3.25418300
77.99999554	0.00000000	7.48646600	-0.97810030
78.19999553	0.00000000	6.69906400	3.24803100
78.39999552	0.00000000	5.99163300	8.31077700
78.59999550	0.00000000	5.57947800	13.69956000
78.79999549	0.00000000	5.94857300	17.88263000
78.99999548	0.00000000	6.41609200	19.46358000
79.19999547	0.00000000	7.62795300	18.35015000
79.39999546	0.00000000	10.23007000	15.23130000
79.59999544	0.00000000	12.13706000	10.62992000
79.79999543	0.00000000	12.97982000	5.61638700
79.99999542	0.00000000	13.29970000	1.71013800
80.19999541	0.00000000	12.09400000	-1.02116100
80.39999540	0.00000000	9.44266700	-2.13459600
80.59999539	0.00000000	6.36687900	-1.02116100
80.79999537	0.00000000	3.67249000	1.66707700
80.99999536	0.00000000	2.13459600	5.15501900
81.19999535	0.00000000	2.13459600	9.00590400
81.39999534	0.00000000	3.67249000	12.07554000
81.59999533	0.00000000	6.36687900	13.74262000
81.79999531	0.00000000	9.44266700	14.53617000
81.99999530	0.00000000	12.13706000	14.90526000
82.19999529	0.00000000	13.67495000	14.07480000
82.39999528	0.00000000	13.71801000	12.16781000
82.59999527	0.00000000	12.55536000	9.47342500
82.79999525	0.00000000	10.64838000	6.72982200
82.99999524	0.00000000	8.32308000	4.36146600
83.19999523	0.00000000	6.41609200	2.04232300
83.39999522	0.00000000	5.21038300	0.51058070
83.59999521	0.00000000	4.83513700	0.09227362
83.79999520	0.00000000	5.21038300	0.55364170
83.99999518	0.00000000	6.32381900	2.54675200
84.19999517	0.00000000	7.48646600	6.35457700
84.39999516	0.00000000	8.28001900	10.58686000
84.59999515	0.00000000	9.06742000	14.07480000
84.79999514	0.00000000	9.44266700	16.39395000
84.99999512	0.00000000	9.48572700	16.76919000
85.19999511	0.00000000	9.48572700	15.23130000
85.39999510	0.00000000	9.48572700	12.11860000
85.59999509	0.00000000	9.48572700	7.89247000
85.79999508	0.00000000	9.48572700	3.62327700
85.99999506	0.00000000	9.48572700	0.13533460
86.19999505	0.00000000	9.44266700	-2.14074800
86.39999504	0.00000000	9.01820900	-2.09153500
86.59999503	0.00000000	7.86171200	0.55364170
86.79999502	0.00000000	6.36687900	4.77977300
86.99999501	0.00000000	5.21038300	9.43036400
87.19999499	0.00000000	4.83513700	13.65650000
87.39999498	0.00000000	5.21038300	16.35089000
87.59999497	0.00000000	6.36687900	16.76919000
87.79999496	0.00000000	7.90477300	15.18824000
87.99999495	0.00000000	9.44266700	11.70029000
88.19999493	0.00000000	10.59916000	6.72982200
88.39999492	0.00000000	11.02362000	2.17765700
88.59999491	0.00000000	11.02362000	-0.55979330
88.79999490	0.00000000	10.55610000	-0.97810030
88.99999489	0.00000000	9.06742000	0.59670270
89.19999487	0.00000000	7.16043300	4.08464600
89.39999486	0.00000000	5.99163300	9.00590400
89.59999485	0.00000000	5.21038300	13.23819000
89.79999484	0.00000000	5.25344500	15.60654000
89.99999483	0.00000000	6.32381900	16.34473000
90.19999482	0.00000000	7.48646600	14.76993000
90.39999480	0.00000000	8.28001900	10.95595000
90.59999479	0.00000000	9.06742000	6.35457700
90.79999478	0.00000000	9.44266700	2.12844500
90.99999477	0.00000000	9.44266700	-0.55979330
91.19999476	0.00000000	9.11048200	-0.88582670
91.39999474	0.00000000	8.69832600	1.34719500
91.59999473	0.00000000	8.69217500	5.61023600
91.79999472	0.00000000	8.32308000	10.17470000
91.99999471	0.00000000	8.37229300	14.43775000
92.19999470	0.00000000	9.06742000	16.67692000
92.39999468	0.00000000	9.39345400	16.35089000
92.59999467	0.00000000	9.06742000	13.65650000
92.79999466	0.00000000	8.28001900	9.43036400
92.99999465	0.00000000	7.52952700	4.82898600
93.19999464	0.00000000	6.69906400	0.97194880
93.39999463	0.00000000	5.94857300	-0.93503930
93.59999461	0.00000000	5.21038300	-0.55979330
93.79999460	0.00000000	5.25344500	2.12844500
93.99999459	0.00000000	6.41609200	6.35457700
94.19999458	0.00000000	8.32308000	10.91289000
94.39999457	0.00000000	10.64838000	14.39468000
94.59999455	0.00000000	12.55536000	15.56348000
94.79999454	0.00000000	13.71801000	14.81299000
94.99999453	0.00000000	13.67495000	12.07554000
95.19999452	0.00000000	12.13706000	7.89247000
95.39999451	0.00000000	9.44266700	3.70939900
95.59999449	0.00000000	6.36687900	1.01501000
95.79999448	0.00000000	3.62942900	0.59670270
95.99999447	0.00000000	1.71628900	2.08538400
96.19999446	0.00000000	0.97194880	4.77977300
96.39999445	0.00000000	2.13459600	7.89247000
96.59999444	0.00000000	4.83513700	10.96211000
96.79999442	0.00000000	8.32308000	13.23819000
96.99999441	0.00000000	12.18012000	13.61343000
97.19999440	0.00000000	15.25591000	12.16781000
97.39999439	0.00000000	16.79380000	9.84867000
97.59999438	0.00000000	16.41855000	7.56643700
97.79999436	0.00000000	14.09326000	5.57332700
97.99999435	0.00000000	10.64838000	4.45374000
98.19999434	0.00000000	6.74212600	4.04158400
98.39999433	0.00000000	3.25418300	4.82283400
98.59999432	0.00000000	0.55364170	6.26845500
98.79999430	0.00000000	-0.55979330	7.47416300
98.99999429	0.00000000	0.55364170	8.26771600
99.19999428	0.00000000	3.20497000	9.05511800
99.39999427	0.00000000	6.36687900	9.43036400
99.59999426	0.00000000	9.86097400	9.47342500
99.79999425	0.00000000	13.34276000	9.47342500
99.99999423	0.00000000	15.63115000	9.51648500
100.19999422	0.00000000	16.41855000	9.84867000
100.39999421	0.00000000	15.25591000	10.21161000
100.59999420	0.00000000	12.60458000	9.84867000
100.79999419	0.00000000	9.48572700	9.47342500
100.99999417	0.00000000	6.36687900	8.96284400
101.19999416	0.00000000	3.67249000	7.43110200
101.39999415	0.00000000	2.13459600	5.19808000
101.59999414	0.00000000	2.09153500	3.66633800
101.79999413	0.00000000	3.20497000	3.29109200
101.99999411	0.00000000	4.78592500	4.03543200
102.19999410	0.00000000	6.74212600	5.98548200
102.39999409	0.00000000	9.06742000	8.31077700
102.59999408	0.00000000	11.02362000	11.00517000
102.79999407	0.00000000	12.55536000	13.28125000
102.99999406	0.00000000	13.34276000	14.07480000
103.19999404	0.00000000	12.93061000	13.65650000
103.39999403	0.00000000	11.76181000	11.70029000
103.59999402	0.00000000	9.48572700	8.31077700
103.79999401	0.00000000	7.20964500	5.24729300
103.99999400	0.00000000	5.94857300	3.24803100
104.19999398	0.00000000	4.78592500	2.08538400
104.39999397	0.00000000	4.09079700	2.12844500
104.59999396	0.00000000	4.83513700	3.66633800
104.79999395	0.00000000	6.32381900	6.31151500
104.99999394	0.00000000	7.90477300	9.05511800
105.19999392	0.00000000	9.44266700	11.33735000
105.39999391	0.00000000	10.59916000	12.90600000
105.59999390	0.00000000	10.97441000	12.86909000
105.79999389	0.00000000	10.64838000	11.74951000
105.99999388	0.00000000	9.81791200	9.42421200
106.19999387	0.00000000	8.69217500	6.77903500
106.39999385	0.00000000	7.16043300	4.82283400
106.59999384	0.00000000	6.41609200	3.66633800
106.79999383	0.00000000	6.36687900	3.66633800
106.99999382	0.00000000	6.79133800	4.82283400
107.19999381	0.00000000	7.90477300	6.72982200
107.39999379	0.00000000	9.01820900	9.00590400
107.59999378	0.00000000	9.44266700	10.53765000
107.79999377	0.00000000	9.48572700	10.95595000
107.99999376	0.00000000	9.44266700	10.58686000
108.19999375	0.00000000	9.01820900	9.42421200
108.39999374	0.00000000	7.90477300	7.89247000
108.59999372	0.00000000	6.79133800	6.36072800
108.79999371	0.00000000	6.36687900	5.19808000
108.99999370	0.00000000	6.36687900	4.87204700
109.19999369	0.00000000	6.74212600	5.57332700
109.39999368	0.00000000	7.52952700	7.14197800
109.59999366	0.00000000	8.32308000	8.64296200
109.79999365	0.00000000	9.48572700	10.21161000
109.99999364	0.00000000	10.55610000	10.95595000
110.19999363	0.00000000	10.59916000	11.00517000
110.39999362	0.00000000	9.86097400	10.58686000
110.59999360	0.00000000	9.06742000	9.42421200
110.79999359	0.00000000	7.90477300	7.89247000
110.99999358	0.00000000	6.79133800	6.36072800
111.19999357	0.00000000	6.36687900	5.19808000
111.39999356	0.00000000	6.36687900	4.82898600
111.59999355	0.00000000	6.74212600	5.19808000
111.79999353	0.00000000	7.48646600	6.31151500
111.99999352	0.00000000	7.90477300	7.47416300
112.19999351	0.00000000	8.32308000	8.26771600
112.39999350	0.00000000	9.06742000	9.05511800
112.59999349	0.00000000	9.44266700	9.43036400
112.79999347	0.00000000	9.44266700	9.47342500
112.99999346	0.00000000	9.06742000	9.43036400
113.19999345	0.00000000	8.32308000	9.05511800
113.39999344	0.00000000	7.94783400	8.31077700
113.59999343	0.00000000	7.90477300	7.93553100
113.79999341	0.00000000	7.90477300	7.89247000
113.99999340	0.00000000	7.90477300	7.84940900
114.19999339	0.00000000	7.90477300	7.47416300
114.39999338	0.00000000	7.90477300	6.72982200
114.59999337	0.00000000	7.90477300	6.35457700
114.79999336	0.00000000	7.90477300	6.31151500
114.99999334	0.00000000	7.90477300	6.31151500
115.19999333	0.00000000	7.90477300	6.31151500
115.39999332	0.00000000	7.90477300	6.35457700
115.59999331	0.00000000	7.90477300	6.77903500
115.79999330	0.00000000	7.86171200	7.89247000
115.99999328	0.00000000	7.52952700	9.00590400
116.19999327	0.00000000	7.16043300	9.47342500
116.39999326	0.00000000	7.52952700	9.84867000
116.59999325	0.00000000	7.86171200	10.21161000
116.79999324	0.00000000	7.90477300	9.79945900
116.99999322	0.00000000	7.94783400	9.09817800
117.19999321	0.00000000	8.32308000	8.26771600
117.39999320	0.00000000	9.06742000	7.47416300
117.59999319	0.00000000	9.44266700	6.31151500
117.79999318	0.00000000	9.48572700	5.19808000
117.99999317	0.00000000	9.48572700	4.82898600
118.19999315	0.00000000	9.48572700	5.19808000
118.39999314	0.00000000	9.44266700	6.31151500
118.59999313	0.00000000	9.01820900	7.47416300
118.79999312	0.00000000	7.90477300	8.26771600
118.99999311	0.00000000	6.79133800	9.05511800
119.19999309	0.00000000	6.32381900	9.43036400
119.39999308	0.00000000	5.94857300	9.47342500
119.59999307	0.00000000	5.62869100	9.43036400
119.79999306	0.00000000	6.41609200	9.05511800
119.99999305	0.00000000	7.86171200	8.31077700
120.19999303	0.00000000	9.06742000	7.89247000
120.39999302	0.00000000	9.86097400	7.47416300
120.59999301	0.00000000	10.64838000	6.72982200
120.79999300	0.00000000	10.97441000	6.35457700
120.99999299	0.00000000	10.59916000	6.31151500
121.19999298	0.00000000	9.48572700	6.35457700
121.39999296	0.00000000	8.32308000	6.72982200
121.59999295	0.00000000	7.48646600	7.47416300
121.79999294	0.00000000	6.32381900	7.84940900
121.99999293	0.00000000	5.25344500	7.89247000
122.19999292	0.00000000	5.21038300	7.89247000
122.39999290	0.00000000	5.94857300	7.93553100
122.59999289	0.00000000	6.74212600	8.31077700
122.79999288	0.00000000	7.90477300	9.05511800
122.99999287	0.00000000	9.06742000	9.38115100
123.19999286	0.00000000	9.86097400	9.05511800
123.39999284	0.00000000	10.64838000	8.31077700
123.59999283	0.00000000	10.97441000	7.93553100
123.79999282	0.00000000	10.64838000	7.84940900
123.99999281	0.00000000	9.86097400	7.47416300
124.19999280	0.00000000	9.11048200	6.72982200
124.39999279	0.00000000	8.28001900	6.35457700
124.59999277	0.00000000	7.52952700	6.35457700
124.79999276	0.00000000	6.74212600	6.72982200
124.99999275	0.00000000	6.36687900	7.47416300
125.19999274	0.00000000	6.36687900	7.84940900
125.39999273	0.00000000	6.74212600	7.93553100
125.59999271	0.00000000	7.52952700	8.31077700
125.79999270	0.00000000	8.28001900	9.05511800
125.99999269	0.00000000	9.06742000	9.43036400
126.19999268	0.00000000	9.48572700	9.43036400
126.39999267	0.00000000	9.90403500	9.05511800
126.59999265	0.00000000	10.59916000	8.31077700
126.79999264	0.00000000	10.55610000	7.89247000
126.99999263	0.00000000	9.48572700	7.47416300
127.19999262	0.00000000	8.32308000	6.72982200
127.39999261	0.00000000	7.52952700	6.40378900
127.59999260	0.00000000	6.74212600	6.68676100
127.79999258	0.00000000	6.36687900	7.09891700
127.99999257	0.00000000	6.36687900	7.10506800
128.19999256	0.00000000	6.79133800	7.51722400
128.39999255	0.00000000	7.90477300	7.89247000
128.59999254	0.00000000	9.06742000	8.26771600
128.79999252	0.00000000	9.81791200	8.63681000
128.99999251	0.00000000	10.23007000	8.26771600
129.19999250	0.00000000	9.86097400	7.93553100
129.39999249	0.00000000	9.48572700	7.84940900
129.59999248	0.00000000	9.01820900	7.47416300
129.79999246	0.00000000	7.90477300	6.72982200
129.99999245	0.00000000	6.79133800	6.40378900
130.19999244	0.00000000	6.36687900	6.72982200
130.39999243	0.00000000	6.32381900	7.47416300
130.59999242	0.00000000	6.36687900	7.84940900
130.79999241	0.00000000	6.79133800	7.89247000
130.99999239	0.00000000	7.90477300	7.89247000
131.19999238	0.00000000	9.01820900	7.89247000
131.39999237	0.00000000	9.44266700	7.89247000
131.59999236	0.00000000	9.48572700	7.84940900
131.79999235	0.00000000	9.48572700	7.47416300
131.99999233	0.00000000	9.44266700	6.72982200
132.19999232	0.00000000	9.06742000	6.35457700
132.39999231	0.00000000	8.32308000	6.35457700
132.59999230	0.00000000	7.94783400	6.72982200
132.79999229	0.00000000	7.90477300	7.47416300
132.99999227	0.00000000	7.90477300	7.89247000
133.19999226	0.00000000	7.90477300	8.31077700
133.39999225	0.00000000	7.90477300	9.05511800
133.59999224	0.00000000	7.90477300	9.43036400
133.79999223	0.00000000	7.90477300	9.43036400
133.99999222	0.00000000	7.90477300	9.05511800
134.19999220	0.00000000	7.90477300	8.26771600
134.39999219	0.00000000	7.90477300	7.51722400
134.59999218	0.00000000	7.94783400	6.72982200
134.79999217	0.00000000	8.32308000	6.35457700
134.99999216	0.00000000	9.06742000	6.31151500
135.19999214	0.00000000	9.44266700	6.35457700
135.39999213	0.00000000	9.48572700	6.72982200
135.59999212	0.00000000	9.44266700	7.47416300
135.79999211	0.00000000	9.06742000	7.84940900
135.99999210	0.00000000	8.32308000	7.93553100
136.19999208	0.00000000	7.90477300	8.26771600
136.39999207	0.00000000	7.48646600	8.63681000
136.59999206	0.00000000	6.79133800	8.26771600
136.79999205	0.00000000	6.79133800	7.93553100
136.99999204	0.00000000	7.52952700	7.84940900
137.19999203	0.00000000	8.28001900	7.47416300
137.39999201	0.00000000	9.06742000	6.72982200
137.59999200	0.00000000	9.48572700	6.35457700
137.79999199	0.00000000	9.86097400	6.31151500
137.99999198	0.00000000	10.18086000	6.31151500
138.19999197	0.00000000	9.44266700	6.31151500
138.39999195	0.00000000	8.37229300	6.35457700
138.59999194	0.00000000	7.90477300	6.72982200
138.79999193	0.00000000	7.52952700	7.47416300
138.99999192	0.00000000	7.16043300	7.84940900
139.19999191	0.00000000	7.52952700	7.93553100
139.39999189	0.00000000	7.86171200	8.31077700
139.59999188	0.00000000	7.94783400	9.05511800
139.79999187	0.00000000	8.32308000	9.38115100
139.99999186	0.00000000	9.06742000	9.05511800
140.19999185	0.00000000	9.44266700	8.26771600
140.39999184	0.00000000	9.44266700	7.51722400
140.59999182	0.00000000	9.06742000	6.72982200
140.79999181	0.00000000	8.32308000	6.35457700
140.99999180	0.00000000	7.94783400	6.31151500
141.19999179	0.00000000	7.90477300	6.31151500
141.39999178	0.00000000	7.90477300	6.40378900
141.59999176	0.00000000	7.94783400	7.14812900
141.79999175	0.00000000	8.32308000	8.63681000
141.99999174	0.00000000	9.06742000	9.38115100
142.19999173	0.00000000	9.44266700	9.47342500
142.39999172	0.00000000	9.48572700	9.47342500
142.59999170	0.00000000	9.44266700	9.43036400
142.79999169	0.00000000	9.06742000	9.00590400
142.99999168	0.00000000	8.28001900	7.89247000
143.19999167	0.00000000	7.57258800	6.77903500
143.39999166	0.00000000	7.16043300	6.35457700
143.59999165	0.00000000	7.52952700	6.31151500
143.79999163	0.00000000	7.86171200	6.31151500
143.99999162	0.00000000	7.90477300	6.35457700
144.19999161	0.00000000	7.94783400	6.77903500
144.39999160	0.00000000	8.32308000	7.89247000
144.59999159	0.00000000	9.06742000	9.00590400
144.79999157	0.00000000	9.44266700	9.43036400
144.99999156	0.00000000	9.44266700	9.47342500
145.19999155	0.00000000	9.06742000	9.43036400
145.39999154	0.00000000	8.32308000	9.05511800
145.59999153	0.00000000	7.94783400	8.26771600
145.79999151	0.00000000	7.90477300	7.51722400
145.99999150	0.00000000	7.90477300	6.72982200
146.19999149	0.00000000	7.90477300	6.35457700
146.39999148	0.00000000	7.94783400	6.31151500
146.59999147	0.00000000	8.32308000	6.31151500
146.79999146	0.00000000	9.06742000	6.35457700
146.99999144	0.00000000	9.44266700	6.72982200
147.19999143	0.00000000	9.48572700	7.47416300
147.39999142	0.00000000	9.44266700	7.89247000
147.59999141	0.00000000	9.06742000	8.31077700
147.79999140	0.00000000	8.32308000	9.00590400
147.99999138	0.00000000	7.94783400	9.00590400
148.19999137	0.00000000	7.90477300	8.31077700
148.39999136	0.00000000	7.90477300	7.93553100
148.59999135	0.00000000	7.90477300	7.89247000
148.79999134	0.00000000	7.90477300	7.89247000
148.99999132	0.00000000	7.94783400	7.89247000
149.19999131	0.00000000	8.32308000	7.89247000
149.39999130	0.00000000	9.06742000	7.89247000
149.59999129	0.00000000	9.44266700	7.89247000
149.79999128	0.00000000	9.48572700	7.89247000
149.99999127	0.00000000	9.48572700	7.89247000
150.19999125	0.00000000	9.44266700	7.89247000
150.39999124	0.00000000	9.06742000	7.89247000
150.59999123	0.00000000	8.32308000	7.89247000
150.79999122	0.00000000	7.94783400	7.89247000
150.99999121	0.00000000	7.90477300	7.89247000
151.19999119	0.00000000	7.90477300	7.89247000
151.39999118	0.00000000	7.90477300	7.89247000
151.59999117	0.00000000	7.90477300	7.89247000
151.79999116	0.00000000	7.90477300	7.84940900
151.99999115	0.00000000	7.94783400	7.47416300
152.19999113	0.00000000	8.32308000	6.77903500
152.39999112	0.00000000	9.06742000	6.77903500
152.59999111	0.00000000	9.44266700	7.47416300
152.79999110	0.00000000	9.48572700	7.84940900
152.99999109	0.00000000	9.48572700	7.89247000
153.19999108	0.00000000	9.44266700	7.89247000
153.39999106	0.00000000	9.06742000	7.89247000
153.59999105	0.00000000	8.32308000	7.89247000
153.79999104	0.00000000	7.94783400	7.89247000
153.99999103	0.00000000	7.90477300	7.89247000
154.19999102	0.00000000	7.90477300	7.89247000
154.39999100	0.00000000	7.90477300	7.89247000
154.59999099	0.00000000	7.90477300	7.89247000
154.79999098	0.00000000	7.90477300	7.89247000
154.99999097	0.00000000	7.94783400	7.89247000
155.19999096	0.00000000	8.32308000	7.89247000
155.39999094	0.00000000	9.06742000	7.89247000
155.59999093	0.00000000	9.44266700	7.89247000
155.79999092	0.00000000	9.48572700	7.89247000
155.99999091	0.00000000	9.44266700	7.89247000
156.19999090	0.00000000	9.06742000	7.93553100
156.39999089	0.00000000	8.32308000	8.31077700
156.59999087	0.00000000	7.94783400	9.05511800
156.79999086	0.00000000	7.90477300	9.43036400
156.99999085	0.00000000	7.90477300	9.43036400
157.19999084	0.00000000	7.90477300	9.05511800
157.39999083	0.00000000	7.90477300	8.31077700
157.59999081	0.00000000	7.90477300	7.93553100
157.79999080	0.00000000	7.94783400	7.84940900
157.99999079	0.00000000	8.32308000	7.47416300
158.19999078	0.00000000	9.06742000	6.72982200
158.39999077	0.00000000	9.44266700	6.40378900
158.59999075	0.00000000	9.48572700	6.72982200
158.79999074	0.00000000	9.48572700	7.47416300
158.99999073	0.00000000	9.44266700	7.84940900
159.19999072	0.00000000	9.06742000	7.93553100
159.39999071	0.00000000	8.32308000	8.31077700
159.59999070	0.00000000	7.94783400	9.05511800
159.79999068	0.00000000	7.90477300	9.43036400
159.99999067	0.00000000	7.90477300	9.43036400
160.19999066	0.00000000	7.90477300	9.05511800
160.39999065	0.00000000	7.90477300	8.31077700
160.59999064	0.00000000	7.90477300	7.89247000
160.79999062	0.00000000	7.90477300	7.51722400
160.99999061	0.00000000	7.90477300	7.10506800
161.19999060	0.00000000	7.90477300	7.14197800
161.39999059	0.00000000	7.94783400	7.10506800
161.59999058	0.00000000	8.32308000	7.51722400
161.79999056	0.00000000	9.06742000	7.84940900
161.99999055	0.00000000	9.44266700	7.89247000
162.19999054	0.00000000	9.44266700	7.89247000
162.39999053	0.00000000	9.06742000	7.89247000
162.59999052	0.00000000	8.32308000	7.89247000
162.79999051	0.00000000	7.94783400	7.89247000
162.99999049	0.00000000	7.90477300	7.89247000
163.19999048	0.00000000	7.90477300	7.89247000
163.39999047	0.00000000	7.90477300	7.89247000
163.59999046	0.00000000	7.90477300	7.89247000
163.79999045	0.00000000	7.90477300	7.89247000
163.99999043	0.00000000	7.90477300	7.89247000
164.19999042	0.00000000	7.94783400	7.89247000
164.39999041	0.00000000	8.32308000	7.84940900
164.59999040	0.00000000	9.06742000	7.51722400
164.79999039	0.00000000	9.44266700	7.14812900
164.99999037	0.00000000	9.44266700	7.51722400
165.19999036	0.00000000	9.06742000	7.84940900
165.39999035	0.00000000	8.32308000	7.89247000
165.59999034	0.00000000	7.94783400	7.89247000
165.79999033	0.00000000	7.90477300	7.89247000
165.99999032	0.00000000	7.90477300	7.89247000
166.19999030	0.00000000	7.90477300	7.89247000
166.39999029	0.00000000	7.90477300	7.89247000
166.59999028	0.00000000	7.90477300	7.89247000
166.79999027	0.00000000	7.90477300	7.89247000
166.99999026	0.00000000	7.90477300	7.89247000
167.19999024	0.00000000	7.94783400	7.89247000
167.39999023	0.00000000	8.32308000	7.89247000
167.59999022	0.00000000	9.06742000	7.89247000
167.79999021	0.00000000	9.44266700	7.89247000
167.99999020	0.00000000	9.48572700	7.89247000
168.19999018	0.00000000	9.44266700	7.89247000
168.39999017	0.00000000	9.06742000	7.89247000
168.59999016	0.00000000	8.32308000	7.89247000
168.79999015	0.00000000	7.94783400	7.89247000
168.99999014	0.00000000	7.90477300	7.89247000
169.19999013	0.00000000	7.90477300	7.89247000
169.39999011	0.00000000	7.90477300	7.89247000
169.59999010	0.00000000	7.90477300	7.89247000
169.79999009	0.00000000	7.90477300	7.89247000
169.99999008	0.00000000	7.90477300	7.89247000
170.19999007	0.00000000	7.94783400	7.89247000
170.39999005	0.00000000	8.28001900	7.89247000
170.59999004	0.00000000	8.64911400	7.89247000
170.79999003	0.00000000	8.32308000	7.89247000
170.99999002	0.00000000	8.37229300	7.89247000
171.19999001	0.00000000	9.01820900	7.89247000
171.39998999	0.00000000	9.06742000	7.89247000
171.59998998	0.00000000	8.69832600	7.89247000
171.79998997	0.00000000	8.69217500	7.89247000
171.99998996	0.00000000	8.28001900	7.89247000
172.19998995	0.00000000	7.99704600	7.89247000
172.39998994	0.00000000	8.28001900	7.89247000
172.59998992	0.00000000	8.64911400	7.89247000
172.79998991	0.00000000	8.28001900	7.89247000
172.99998990	0.00000000	7.94783400	7.89247000
173.19998989	0.00000000	7.90477300	7.89247000
173.39998988	0.00000000	7.94783400	7.89247000
173.59998986	0.00000000	8.28001900	7.89247000
173.79998985	0.00000000	8.64911400	7.89247000
173.99998984	0.00000000	8.28001900	7.89247000
174.19998983	0.00000000	7.94783400	7.89247000
174.39998982	0.00000000	7.90477300	7.89247000
174.59998980	0.00000000	7.94783400	7.89247000
174.79998979	0.00000000	8.28001900	7.89247000
174.99998978	0.00000000	8.64911400	7.89247000
175.19998977	0.00000000	8.32308000	7.89247000
175.39998976	0.00000000	8.32308000	7.89247000
175.59998975	0.00000000	8.64911400	7.89247000
175.79998973	0.00000000	8.28001900	7.89247000
175.99998972	0.00000000	7.94783400	7.89247000
176.19998971	0.00000000	7.90477300	7.89247000
176.39998970	0.00000000	7.90477300	7.89247000
176.59998969	0.00000000	7.90477300	7.89247000
176.79998967	0.00000000	7.90477300	7.89247000
176.99998966	0.00000000	7.90477300	7.89247000
177.19998965	0.00000000	7.90477300	7.89247000
177.39998964	0.00000000	7.90477300	7.89247000
177.59998963	0.00000000	7.90477300	7.89247000
177.79998961	0.00000000	7.90477300	7.89247000
177.99998960	0.00000000	7.94783400	7.89247000
178.19998959	0.00000000	8.28001900	7.89247000
178.39998958	0.00000000	8.64911400	7.89247000
178.59998957	0.00000000	8.28001900	7.89247000
178.79998956	0.00000000	7.94783400	7.89247000
178.99998954	0.00000000	7.90477300	7.89247000
179.19998953	0.00000000	7.94783400	7.89247000
179.39998952	0.00000000	8.28001900	7.89247000
179.59998951	0.00000000	8.69217500	7.89247000
179.79998950	0.00000000	8.69832600	7.89247000
179.99998948	0.00000000	9.11048200	7.89247000
180.19998947	0.00000000	9.39345400	7.89247000
180.39998946	0.00000000	9.11048200	7.89247000
180.59998945	0.00000000	8.69832600	7.89247000
180.79998944	0.00000000	8.69217500	7.89247000
180.99998942	0.00000000	8.32308000	7.89247000
181.19998941	0.00000000	8.32308000	7.89247000
181.39998940	0.00000000	8.64911400	7.89247000
181.59998939	0.00000000	8.32308000	7.89247000
181.79998938	0.00000000	8.32308000	7.89247000
181.99998937	0.00000000	8.64911400	7.89247000
182.19998935	0.00000000	8.32308000	7.89247000
182.39998934	0.00000000	8.37229300	7.84940900
182.59998933	0.00000000	9.06742000	7.51722400
182.79998932	0.00000000	9.44266700	7.14812900
182.99998931	0.00000000	9.48572700	7.47416300
183.19998929	0.00000000	9.44266700	7.42495000
183.39998928	0.00000000	9.06742000	6.77903500
183.59998927	0.00000000	8.32308000	6.77903500
183.79998926	0.00000000	7.94783400	7.47416300
183.99998925	0.00000000	7.90477300	7.84940900
184.19998923	0.00000000	7.90477300	7.93553100
184.39998922	0.00000000	7.90477300	8.31077700
184.59998921	0.00000000	7.90477300	9.00590400
184.79998920	0.00000000	7.90477300	9.00590400
184.99998919	0.00000000	7.90477300	8.31077700
185.19998918	0.00000000	7.90477300	7.93553100
185.39998916	0.00000000	7.94783400	7.89247000
185.59998915	0.00000000	8.32308000	7.89247000
185.79998914	0.00000000	9.06742000	7.84940900
185.99998913	0.00000000	9.39345400	7.47416300
186.19998912	0.00000000	9.06742000	6.72982200
186.39998910	0.00000000	8.32308000	6.40378900
186.59998909	0.00000000	7.94783400	6.72982200
186.79998908	0.00000000	7.90477300	7.47416300
186.99998907	0.00000000	7.90477300	7.84940900
187.19998906	0.00000000	7.90477300	7.89247000
187.39998904	0.00000000	7.90477300	7.89247000
187.59998903	0.00000000	7.94783400	7.89247000
187.79998902	0.00000000	8.32308000	7.89247000
187.99998901	0.00000000	9.06742000	7.89247000
188.19998900	0.00000000	9.39345400	7.89247000
188.39998899	0.00000000	9.11048200	7.89247000
188.59998897	0.00000000	8.74138700	7.84940900
188.79998896	0.00000000	9.11048200	7.51722400
188.99998895	0.00000000	9.44266700	7.14812900
189.19998894	0.00000000	9.44266700	7.51722400
189.39998893	0.00000000	9.06742000	7.84940900
189.59998891	0.00000000	8.32308000	7.89247000
189.79998890	0.00000000	7.94783400	7.89247000
189.99998889	0.00000000	7.90477300	7.89247000
190.19998888	0.00000000	7.90477300	7.89247000
190.39998887	0.00000000	7.90477300	7.89247000
190.59998885	0.00000000	7.90477300	7.89247000
190.79998884	0.00000000	7.90477300	7.89247000
190.99998883	0.00000000	7.94783400	7.89247000
191.19998882	0.00000000	8.32308000	7.89247000
191.39998881	0.00000000	9.06742000	7.89247000
191.59998880	0.00000000	9.44266700	7.89247000
191.79998878	0.00000000	9.44266700	7.89247000
191.99998877	0.00000000	9.11048200	7.89247000
192.19998876	0.00000000	8.74138700	7.89247000
192.39998875	0.00000000	9.06742000	7.89247000
192.59998874	0.00000000	9.01820900	7.89247000
192.79998872	0.00000000	8.32308000	7.89247000
192.99998871	0.00000000	7.94783400	7.89247000
193.19998870	0.00000000	7.90477300	7.89247000
193.39998869	0.00000000	7.90477300	7.89247000
193.59998868	0.00000000	7.90477300	7.89247000
193.79998866	0.00000000	7.94783400	7.89247000
193.99998865	0.00000000	8.32308000	7.89247000
194.19998864	0.00000000	9.06742000	7.89247000
194.39998863	0.00000000	9.44266700	7.89247000
194.59998862	0.00000000	9.48572700	7.89247000
194.79998861	0.00000000	9.48572700	7.89247000
194.99998859	0.00000000	9.48572700	7.89247000
195.19998858	0.00000000	9.44266700	7.89247000
195.39998857	0.00000000	9.06742000	7.89247000
195.59998856	0.00000000	8.32308000	7.89247000
195.79998855	0.00000000	7.94783400	7.89247000
195.99998853	0.00000000	7.90477300	7.89247000
