Time	Channel A	Channel B	Channel C
(us)	(V)	(mV)	(mV)

-4.59999956	0.00000000	36.36811000	4.77977300
-4.39999957	0.00000000	36.32505000	5.11195900
-4.19999958	0.00000000	35.99286000	5.47490100
-3.99999959	0.00000000	35.62377000	5.11195900
-3.79999960	0.00000000	35.94980000	4.77977300
-3.59999962	0.00000000	35.90059000	4.73671200
-3.39999963	0.00000000	35.20546000	4.73671200
-3.19999964	0.00000000	34.87943000	4.73671200
-2.99999965	0.00000000	35.20546000	4.73671200
-2.79999966	0.00000000	35.94980000	4.73671200
-2.59999968	0.00000000	36.27584000	4.73671200
-2.39999969	0.00000000	35.99286000	4.73671200
-2.19999970	0.00000000	35.58071000	4.73671200
-1.99999971	0.00000000	35.61762000	4.73671200
-1.79999972	0.00000000	35.53765000	4.73671200
-1.59999973	0.00000000	35.57455000	4.73671200
-1.39999975	0.00000000	35.16240000	4.73671200
-1.19999976	0.00000000	34.87943000	4.73671200
-0.99999977	0.00000000	35.20546000	4.77977300
-0.79999978	0.00000000	35.94980000	5.15501900
-0.59999979	0.00000000	36.27584000	5.85014700
-0.39999981	0.15871060	35.94980000	5.85014700
-0.19999982	0.47736220	35.25467000	5.19808000
0.00000017	0.79601380	35.20546000	5.15501900
0.20000016	1.11466500	35.53149000	5.47490100
0.40000015	0.95533960	35.16240000	5.11195900
0.60000013	0.47736220	34.87943000	4.77977300
0.80000012	-0.15871060	35.16240000	4.73671200
1.00000011	-1.11466500	35.57455000	4.73671200
1.20000010	-2.07062000	35.58071000	4.73671200
1.40000009	-2.70792300	35.94980000	4.73671200
1.60000008	-2.54859700	35.90059000	4.77977300
1.80000006	-1.75196900	35.25467000	5.15501900
2.00000005	-0.15871060	35.20546000	5.89320800
2.20000004	1.91129400	35.53149000	6.21924200
2.40000003	3.98191400	35.16240000	5.89320800
2.60000002	5.25652100	34.83022000	5.15501900
2.80000000	5.25652100	34.78716000	4.77977300
2.99999999	3.82258900	34.78716000	4.73671200
3.19999998	1.11466500	34.78716000	4.73671200
3.39999997	-2.38927200	34.83022000	4.73671200
3.59999996	-5.57517200	35.20546000	4.77977300
3.79999994	-7.64579200	35.94980000	5.15501900
3.99999993	-7.80511800	36.27584000	5.89320800
4.19999992	-6.05315000	35.99286000	6.26845500
4.39999991	-2.54859700	35.62377000	6.31151500
4.59999990	1.91129400	35.94980000	6.31151500
4.79999989	6.05315000	35.90059000	6.26845500
4.99999987	8.76107300	35.20546000	5.89320800
5.19999986	9.39837600	34.83022000	5.15501900
5.39999985	7.64579200	34.78716000	4.77977300
5.59999984	3.98191400	34.78716000	4.73671200
5.79999983	-0.63668800	34.78716000	4.73671200
5.99999981	-5.25652100	34.78716000	4.73671200
6.19999980	-8.44242100	34.83022000	4.77977300
6.39999979	-9.39837600	35.20546000	5.15501900
6.59999978	-8.12377000	35.90059000	5.89320800
6.79999977	-4.77854300	35.90059000	6.26845500
6.99999975	-0.63668800	35.20546000	6.26845500
7.19999974	3.66326300	34.83022000	5.89320800
7.39999973	6.69045300	34.78716000	5.15501900
7.59999972	7.80511800	34.78716000	4.77977300
7.79999971	7.00848900	34.78716000	4.73671200
7.99999970	4.61921700	34.78716000	4.73671200
8.19999968	1.27399100	34.78716000	4.73671200
8.39999967	-1.91129400	34.78716000	4.73671200
8.59999966	-4.14124000	34.78716000	4.73671200
8.79999965	-5.09719500	34.78716000	4.73671200
8.99999964	-4.77854300	34.78716000	4.73671200
9.19999962	-3.34522600	34.78716000	4.77977300
9.39999961	-1.27399100	34.83022000	5.11195900
9.59999960	0.47736220	35.16240000	5.47490100
9.79999959	1.91129400	35.57455000	5.11195900
9.99999958	2.54859700	35.53765000	4.77977300
10.19999956	2.38927200	35.57455000	4.73671200
10.39999955	1.75196900	35.20546000	4.73671200
10.59999954	0.79601380	35.20546000	4.73671200
10.79999953	0.00000000	35.53149000	4.73671200
10.99999952	-0.63668800	35.16240000	4.77977300
11.19999951	-0.95533960	34.83022000	5.11195900
11.39999949	-0.95533960	34.78716000	5.47490100
11.59999948	-0.79601380	34.78716000	5.11195900
11.79999947	-0.47736220	34.78716000	4.77977300
11.99999946	-0.15871060	34.78716000	4.73671200
12.19999945	-0.15871060	34.78716000	4.73671200
12.39999943	0.00000000	34.78716000	4.73671200
12.59999942	0.00000000	34.78716000	4.73671200
12.79999941	0.00000000	34.78716000	4.73671200
12.99999940	0.15871060	34.78716000	4.73671200
13.19999939	0.00000000	34.78716000	4.73671200
13.39999937	0.00000000	34.78716000	4.73671200
13.59999936	0.00000000	34.78716000	4.73671200
13.79999935	0.00000000	34.83022000	4.73671200
13.99999934	-0.15871060	35.16240000	4.73671200
14.19999933	-0.15871060	35.53149000	4.73671200
14.39999932	-0.15871060	35.16240000	4.73671200
14.59999930	0.00000000	34.83022000	4.73671200
14.79999929	0.00000000	34.78716000	4.73671200
14.99999928	0.00000000	34.78716000	4.73671200
15.19999927	0.00000000	34.78716000	4.73671200
15.39999926	0.00000000	34.78716000	4.73671200
15.59999924	0.00000000	34.78716000	4.73671200
15.79999923	0.00000000	34.78716000	4.73671200
15.99999922	0.00000000	34.78716000	4.73671200
16.19999921	0.00000000	34.78716000	4.73671200
16.39999920	0.00000000	34.83022000	4.73671200
16.59999919	0.00000000	35.20546000	4.73671200
16.79999917	0.00000000	35.94980000	4.73671200
16.99999916	0.00000000	36.32505000	4.73671200
17.19999915	0.00000000	36.41117000	4.73671200
17.39999914	0.00000000	36.74335000	4.73671200
17.59999913	0.00000000	37.11245000	4.73671200
17.79999911	0.00000000	36.70029000	4.73671200
17.99999910	0.00000000	35.94980000	4.77977300
18.19999909	0.00000000	34.73794000	5.11195900
18.39999908	0.00000000	33.20005000	5.47490100
18.59999907	0.00000000	31.66215000	5.11195900
18.79999905	0.00000000	30.50566000	4.77977300
18.99999904	0.00000000	30.17347000	4.73671200
19.19999903	0.00000000	30.92396000	4.73671200
19.39999902	0.00000000	32.91707000	4.73671200
19.59999901	0.00000000	35.66683000	4.77977300
19.79999900	0.00000000	39.57308000	5.11195900
19.99999898	0.00000000	43.71924000	5.47490100
20.19999897	0.00000000	46.37057000	5.11195900
20.39999896	0.00000000	46.37057000	4.77977300
20.59999895	0.00000000	43.62696000	4.73671200
20.79999894	0.00000000	38.55192000	4.73671200
20.99999892	0.00000000	31.53297000	4.73671200
21.19999891	0.00000000	23.84965000	4.73671200
21.39999890	0.00000000	17.34129000	4.73671200
21.59999889	0.00000000	14.30856000	4.73671200
21.79999888	0.00000000	15.88952000	4.73671200
21.99999886	0.00000000	22.12721000	4.73671200
22.19999885	0.00000000	32.26501000	4.73671200
22.39999884	0.00000000	44.64813000	4.73671200
22.59999883	0.00000000	56.92667000	4.73671200
22.79999882	0.00000000	65.31126000	4.77977300
22.99999881	0.00000000	66.84301000	5.15501900
23.19999879	0.00000000	60.98056000	5.89320800
23.39999878	0.00000000	48.55437000	6.26845500
23.59999877	0.00000000	31.53297000	6.35457700
23.79999876	0.00000000	13.80413000	6.68676100
23.99999875	0.00000000	-0.47982280	7.05585600
24.19999873	0.00000000	-7.69562000	6.64370100
24.39999872	0.00000000	-5.32111200	5.89320800
24.59999871	0.00000000	7.04970500	4.68750000
24.79999870	0.00000000	26.35950000	3.19881900
24.99999869	0.00000000	48.41904000	1.99311000
25.19999867	0.00000000	68.47317000	1.19955700
25.39999866	0.00000000	81.54527000	0.46136810
25.59999865	0.00000000	84.24581000	0.55364170
25.79999864	0.00000000	75.68896000	2.12844500
25.99999863	0.00000000	57.53568000	5.24729300
26.19999862	0.00000000	33.57529000	9.47342500
26.39999860	0.00000000	9.65797200	13.65650000
26.59999859	0.00000000	-8.90132800	16.35089000
26.79999858	0.00000000	-17.74114000	16.71998000
26.99999857	0.00000000	-14.67150000	14.76993000
27.19999856	0.00000000	-0.38754920	10.40846000
27.39999854	0.00000000	21.61663000	3.85088600
27.59999853	0.00000000	46.32751000	-3.85088600
27.79999852	0.00000000	67.96260000	-10.40846000
27.99999851	0.00000000	81.50221000	-14.63459000
28.19999850	0.00000000	84.24581000	-15.28666000
28.39999848	0.00000000	75.81815000	-10.96826000
28.59999847	0.00000000	58.83981000	-2.09153500
28.79999846	0.00000000	37.61687000	9.51648500
28.99999845	0.00000000	16.68922000	21.46284000
29.19999844	0.00000000	0.81815940	31.07775000
29.39999843	0.00000000	-7.36343400	35.62992000
29.59999841	0.00000000	-6.20078700	33.67987000
29.79999840	0.00000000	3.75246000	25.13533000
29.99999839	0.00000000	19.52510000	11.61417000
30.19999838	0.00000000	36.97096000	-4.22613100
30.39999837	0.00000000	52.51599000	-18.86688000
30.59999835	0.00000000	63.76722000	-28.90010000
30.79999834	0.00000000	68.42396000	-31.96973000
30.99999833	0.00000000	65.77264000	-27.31914000
31.19999832	0.00000000	56.92667000	-15.66191000
31.39999831	0.00000000	44.18061000	0.92888770
31.59999829	0.00000000	30.64099000	19.08834000
31.79999828	0.00000000	18.96531000	34.51648000
31.99999827	0.00000000	11.19587000	44.13140000
32.19999826	0.00000000	8.49532500	45.29404000
32.39999825	0.00000000	11.57111000	37.63533000
32.59999824	0.00000000	19.61737000	23.68971000
32.79999822	0.00000000	30.03814000	5.89320800
32.99999821	0.00000000	40.50812000	-12.22318000
33.19999820	0.00000000	49.06496000	-26.16265000
33.39999819	0.00000000	54.09695000	-33.54453000
33.59999818	0.00000000	54.88435000	-33.12623000
33.79999816	0.00000000	51.02116000	-24.62475000
33.99999815	0.00000000	43.71924000	-9.99015700
34.19999814	0.00000000	34.87328000	7.38804100
34.39999813	0.00000000	26.77780000	23.60359000
34.59999812	0.00000000	21.70891000	35.21776000
34.79999810	0.00000000	20.12795000	39.90526000
34.99999809	0.00000000	22.08415000	37.21087000
35.19999808	0.00000000	27.42987000	27.92200000
35.39999807	0.00000000	34.27657000	13.65650000
35.59999806	0.00000000	40.13902000	-2.09153500
35.79999805	0.00000000	44.00221000	-15.24360000
35.99999803	0.00000000	45.53395000	-23.00074000
36.19999802	0.00000000	43.58390000	-24.16338000
36.39999801	0.00000000	39.06250000	-18.39936000
36.59999800	0.00000000	33.66756000	-7.29576700
36.79999799	0.00000000	29.01082000	5.75787400
36.99999797	0.00000000	25.94119000	17.32899000
37.19999796	0.00000000	25.15379000	24.66781000
37.39999795	0.00000000	27.05462000	26.24877000
37.59999794	0.00000000	30.54872000	22.02264000
37.79999793	0.00000000	35.20546000	13.23819000
37.99999791	0.00000000	40.13902000	2.50369100
38.19999790	0.00000000	43.25172000	-6.64985200
38.39999789	0.00000000	44.04527000	-11.66339000
38.59999788	0.00000000	42.92569000	-10.92520000
38.79999787	0.00000000	39.81299000	-5.25344500
38.99999786	0.00000000	35.94980000	3.24803100
39.19999784	0.00000000	31.66830000	12.40773000
39.39999783	0.00000000	27.84818000	19.69119000
39.59999782	0.00000000	25.84892000	22.34867000
39.79999781	0.00000000	25.47367000	20.06643000
39.99999780	0.00000000	26.64247000	13.10285000
40.19999778	0.00000000	29.75517000	3.20497000
40.39999777	0.00000000	33.57529000	-6.36687900
40.59999776	0.00000000	37.53075000	-12.50000000
40.79999775	0.00000000	40.97564000	-13.70571000
40.99999774	0.00000000	43.34399000	-9.80561000
41.19999772	0.00000000	44.09449000	-1.76550200
41.39999771	0.00000000	43.34399000	8.59375000
41.59999770	0.00000000	40.97564000	17.74729000
41.79999769	0.00000000	37.53075000	23.22835000
41.99999768	0.00000000	33.61835000	23.97884000
42.19999767	0.00000000	30.17347000	20.15871000
42.39999765	0.00000000	27.80512000	12.45079000
42.59999764	0.00000000	27.05462000	3.29109200
42.79999763	0.00000000	27.76206000	-4.82898600
42.99999762	0.00000000	29.66289000	-9.84867000
43.19999761	0.00000000	31.61909000	-11.05438000
43.39999759	0.00000000	33.61835000	-8.40920300
43.59999758	0.00000000	35.90059000	-3.02042300
43.79999757	0.00000000	37.43848000	3.53100400
43.99999756	0.00000000	37.90600000	10.03322000
44.19999755	0.00000000	37.94907000	14.30241000
44.39999753	0.00000000	37.94907000	15.56348000
44.59999752	0.00000000	37.94907000	14.81299000
44.79999751	0.00000000	37.94907000	12.07554000
44.99999750	0.00000000	37.90600000	7.89247000
45.19999749	0.00000000	37.48154000	3.66633800
45.39999748	0.00000000	36.27584000	0.55364170
45.59999746	0.00000000	34.31963000	-1.02116100
45.79999745	0.00000000	31.57603000	-1.06422200
45.99999744	0.00000000	28.50024000	0.09227362
46.19999743	0.00000000	25.80585000	1.99311000
46.39999742	0.00000000	24.31102000	4.36146600
46.59999740	0.00000000	24.73548000	6.64370100
46.79999739	0.00000000	27.52214000	8.58759800
46.99999738	0.00000000	32.54798000	9.33809000
47.19999737	0.00000000	39.11171000	9.00590400
47.39999736	0.00000000	45.25713000	7.80019600
47.59999734	0.00000000	49.53248000	5.89320800
47.79999733	0.00000000	51.02116000	3.57406500
47.99999732	0.00000000	49.02190000	1.66707700
48.19999731	0.00000000	43.20866000	0.46136810
48.39999730	0.00000000	34.73794000	0.09227362
48.59999729	0.00000000	25.84892000	0.51058070
48.79999727	0.00000000	18.54700000	2.08538400
48.99999726	0.00000000	14.73302000	4.77977300
49.19999725	0.00000000	15.88952000	7.84940900
49.39999724	0.00000000	21.65969000	10.53765000
49.59999723	0.00000000	30.50566000	12.03248000
49.79999721	0.00000000	40.18209000	11.65723000
49.99999720	0.00000000	48.28371000	9.33809000
50.19999719	0.00000000	53.30339000	5.89320800
50.39999718	0.00000000	53.62943000	1.99311000
50.59999717	0.00000000	49.06496000	-1.44562000
50.79999715	0.00000000	40.97564000	-3.76476400
50.99999714	0.00000000	31.71137000	-4.09079700
51.19999713	0.00000000	23.24065000	-2.22687000
51.39999712	0.00000000	17.84572000	1.29183100
51.59999711	0.00000000	17.10138000	5.48105300
51.79999710	0.00000000	20.87229000	9.79330600
51.99999708	0.00000000	28.17421000	12.82603000
52.19999707	0.00000000	36.23277000	14.39468000
52.39999706	0.00000000	43.20866000	13.56422000
52.59999705	0.00000000	47.44094000	10.53765000
52.79999704	0.00000000	47.85925000	6.31151500
52.99999702	0.00000000	44.78961000	2.08538400
53.19999701	0.00000000	39.01944000	-1.02116100
53.39999700	0.00000000	32.12967000	-2.55905500
53.59999699	0.00000000	26.35950000	-2.18380900
53.79999698	0.00000000	23.28986000	0.09227362
53.99999696	0.00000000	23.61589000	3.15575800
54.19999695	0.00000000	27.05462000	6.22539300
54.39999694	0.00000000	32.03740000	8.54453700
54.59999693	0.00000000	37.43848000	9.29502900
54.79999692	0.00000000	41.67076000	8.58759800
54.99999691	0.00000000	43.58390000	6.68676100
55.19999689	0.00000000	42.83341000	4.82283400
55.39999688	0.00000000	39.35162000	3.62327700
55.59999687	0.00000000	34.41191000	3.29109200
55.79999686	0.00000000	29.43528000	4.03543200
55.99999685	0.00000000	26.35950000	5.93626900
56.19999683	0.00000000	25.89198000	7.80019600
56.39999682	0.00000000	27.42987000	8.96284400
56.59999681	0.00000000	30.50566000	8.87672100
56.79999680	0.00000000	34.36884000	6.96358300
56.99999679	0.00000000	37.81373000	3.53100400
57.19999677	0.00000000	40.18209000	0.09227362
57.39999676	0.00000000	40.93258000	-2.60211600
57.59999675	0.00000000	40.18209000	-3.71555100
57.79999674	0.00000000	37.85679000	-2.51599400
57.99999673	0.00000000	34.83022000	0.92888770
58.19999672	0.00000000	32.12967000	5.98548200
58.39999670	0.00000000	30.54872000	11.33120000
58.59999669	0.00000000	30.13041000	15.92642000
58.79999668	0.00000000	30.54872000	17.79035000
58.99999667	0.00000000	32.08661000	16.25861000
59.19999666	0.00000000	34.31963000	11.61417000
59.39999664	0.00000000	35.85752000	4.73671200
59.59999663	0.00000000	36.32505000	-2.22687000
59.79999662	0.00000000	36.32505000	-7.57874000
59.99999661	0.00000000	35.90059000	-10.26698000
60.19999660	0.00000000	34.73794000	-8.69217500
60.39999658	0.00000000	33.24926000	-3.76476400
60.59999657	0.00000000	32.12967000	3.24803100
60.79999656	0.00000000	32.12967000	10.91289000
60.99999655	0.00000000	33.24926000	17.46432000
61.19999654	0.00000000	34.78716000	20.90305000
61.39999653	0.00000000	36.27584000	20.53395000
61.59999651	0.00000000	37.06324000	16.25861000
61.79999650	0.00000000	36.70029000	8.96284400
61.99999649	0.00000000	35.90059000	0.51058070
62.19999648	0.00000000	34.31963000	-6.82824800
62.39999647	0.00000000	32.08661000	-11.47884000
62.59999645	0.00000000	30.54872000	-12.59227000
62.79999644	0.00000000	30.08120000	-9.52263600
62.99999643	0.00000000	30.13041000	-3.02042300
63.19999642	0.00000000	30.96703000	4.69365100
63.39999641	0.00000000	33.24926000	12.07554000
63.59999639	0.00000000	35.90059000	17.83957000
63.79999638	0.00000000	37.85679000	20.53395000
63.99999637	0.00000000	39.01944000	19.37131000
64.19999636	0.00000000	39.01944000	14.81299000
64.39999635	0.00000000	37.85679000	8.26771600
64.59999634	0.00000000	35.90059000	1.71013800
64.79999632	0.00000000	33.20005000	-3.76476400
64.99999631	0.00000000	30.54872000	-7.25270600
65.19999630	0.00000000	29.01082000	-8.40920300
65.39999629	0.00000000	28.96776000	-6.87746000
65.59999628	0.00000000	30.13041000	-3.02042300
65.79999626	0.00000000	32.03740000	1.95004900
65.99999625	0.00000000	34.36884000	7.00664300
66.19999624	0.00000000	36.27584000	10.91289000
66.39999623	0.00000000	37.43848000	13.65650000
66.59999622	0.00000000	37.39542000	14.81299000
66.79999620	0.00000000	35.90059000	14.07480000
66.99999619	0.00000000	33.61835000	12.16781000
67.19999618	0.00000000	31.75443000	9.42421200
67.39999617	0.00000000	30.92396000	6.31151500
67.59999616	0.00000000	31.33612000	3.15575800
67.79999615	0.00000000	32.50492000	0.04306102
67.99999613	0.00000000	34.83022000	-2.64517700
68.19999612	0.00000000	37.43848000	-4.22613100
68.39999611	0.00000000	38.97638000	-4.60137700
68.59999610	0.00000000	38.97638000	-3.76476400
68.79999609	0.00000000	37.39542000	-1.02116100
68.99999607	0.00000000	34.31963000	3.20497000
69.19999606	0.00000000	30.50566000	7.84940900
69.39999605	0.00000000	27.42987000	12.11860000
69.59999604	0.00000000	25.84892000	15.18824000
69.79999603	0.00000000	25.89198000	16.34473000
69.99999601	0.00000000	27.84818000	15.18824000
70.19999600	0.00000000	31.71137000	12.07554000
70.39999599	0.00000000	36.31890000	7.42495000
70.59999598	0.00000000	40.60039000	2.04232300
70.79999597	0.00000000	43.67618000	-2.55905500
70.99999596	0.00000000	44.78961000	-5.29650500
71.19999594	0.00000000	43.20866000	-5.71481200
71.39999593	0.00000000	39.01944000	-4.18307100
71.59999592	0.00000000	33.61835000	-1.07037400
71.79999591	0.00000000	28.54946000	3.20497000
71.99999590	0.00000000	24.31102000	7.80019600
72.19999588	0.00000000	22.03494000	11.61417000
72.39999587	0.00000000	22.77928000	13.18898000
72.59999586	0.00000000	25.84892000	12.49385000
72.79999585	0.00000000	30.50566000	10.58686000
72.99999584	0.00000000	35.90059000	7.84940900
73.19999582	0.00000000	40.55733000	4.77977300
73.39999581	0.00000000	43.67618000	2.12844500
73.59999580	0.00000000	44.78961000	0.97194880
73.79999579	0.00000000	43.25172000	1.66707700
73.99999578	0.00000000	39.43774000	3.15575800
74.19999577	0.00000000	34.83022000	4.68750000
74.39999575	0.00000000	30.54872000	5.80093500
74.59999574	0.00000000	27.42987000	5.80093500
74.79999573	0.00000000	25.89198000	4.68750000
74.99999572	0.00000000	26.26722000	3.19881900
75.19999571	0.00000000	28.54946000	2.04232300
75.39999569	0.00000000	31.57603000	1.66707700
75.59999568	0.00000000	34.31963000	2.08538400
75.79999567	0.00000000	36.27584000	3.66633800
75.99999566	0.00000000	37.48154000	6.36072800
76.19999565	0.00000000	37.85679000	9.42421200
76.39999563	0.00000000	37.48154000	12.07554000
76.59999562	0.00000000	36.32505000	13.18898000
76.79999561	0.00000000	34.83022000	11.98942000
76.99999560	0.00000000	33.66756000	8.54453700
77.19999559	0.00000000	33.29232000	3.53100400
77.39999558	0.00000000	33.57529000	-1.43946800
77.59999556	0.00000000	33.94439000	-5.33956700
77.79999555	0.00000000	33.57529000	-7.20349400
77.99999554	0.00000000	33.20005000	-6.45300100
78.19999553	0.00000000	32.73252000	-2.97736200
78.39999552	0.00000000	31.61909000	2.04232300
78.59999550	0.00000000	30.54872000	7.84940900
78.79999549	0.00000000	30.54872000	13.23819000
78.99999548	0.00000000	31.66215000	16.67692000
79.19999547	0.00000000	33.24926000	17.50738000
79.39999546	0.00000000	35.20546000	15.56348000
79.59999544	0.00000000	37.48154000	11.70029000
79.79999543	0.00000000	39.01944000	6.26845500
79.99999542	0.00000000	39.39468000	0.55364170
80.19999541	0.00000000	38.60113000	-3.71555100
80.39999540	0.00000000	36.27584000	-5.71481200
80.59999539	0.00000000	33.24926000	-5.75787400
80.79999537	0.00000000	30.50566000	-4.18307100
80.99999536	0.00000000	28.59252000	-1.07037400
81.19999535	0.00000000	27.80512000	3.15575800
81.39999534	0.00000000	28.54946000	7.43110200
81.59999533	0.00000000	30.08120000	10.91289000
81.79999531	0.00000000	32.08661000	13.28125000
81.99999530	0.00000000	34.73794000	14.07480000
82.19999529	0.00000000	37.02018000	13.69956000
82.39999528	0.00000000	37.85679000	12.07554000
82.59999527	0.00000000	37.85679000	9.00590400
82.79999525	0.00000000	37.06324000	5.15501900
82.99999524	0.00000000	35.16240000	1.62401600
83.19999523	0.00000000	33.29232000	-1.48868100
83.39999522	0.00000000	32.03740000	-3.80782500
83.59999521	0.00000000	31.28691000	-4.55831700
83.79999520	0.00000000	30.87475000	-3.80782500
83.99999518	0.00000000	31.28691000	-1.44562000
84.19999517	0.00000000	31.99434000	2.04232300
84.39999516	0.00000000	32.78174000	6.31151500
84.59999515	0.00000000	33.15699000	10.53765000
84.79999514	0.00000000	33.20005000	13.60728000
84.99999512	0.00000000	33.24311000	14.81299000
85.19999511	0.00000000	33.61835000	14.03174000
85.39999510	0.00000000	34.36884000	11.65723000
85.59999509	0.00000000	34.78716000	7.38188900
85.79999508	0.00000000	35.20546000	2.04232300
85.99999506	0.00000000	35.90059000	-2.60211600
86.19999505	0.00000000	35.85752000	-5.71481200
86.39999504	0.00000000	34.73794000	-6.82824800
86.59999503	0.00000000	33.20005000	-5.29650500
86.79999502	0.00000000	31.66215000	-1.43946800
86.99999501	0.00000000	30.50566000	3.57406500
87.19999499	0.00000000	30.08120000	8.96284400
87.39999498	0.00000000	30.08120000	13.18898000
87.59999497	0.00000000	30.50566000	15.14518000
87.79999496	0.00000000	31.71137000	14.76993000
87.99999495	0.00000000	33.57529000	12.03248000
88.19999493	0.00000000	35.52534000	7.42495000
88.39999492	0.00000000	36.65108000	2.04232300
88.59999491	0.00000000	37.11245000	-2.55905500
88.79999490	0.00000000	36.65108000	-5.24729300
88.99999489	0.00000000	35.52534000	-5.24729300
89.19999487	0.00000000	33.57529000	-2.60211600
89.39999486	0.00000000	31.71137000	1.62401600
89.59999485	0.00000000	30.50566000	6.31151500
89.79999484	0.00000000	30.13041000	10.91289000
89.99999483	0.00000000	30.50566000	14.30241000
90.19999482	0.00000000	31.66215000	14.67766000
90.39999480	0.00000000	33.15699000	12.03248000
90.59999479	0.00000000	34.36884000	7.47416300
90.79999478	0.00000000	35.16240000	2.46063000
90.99999477	0.00000000	35.90059000	-1.39640700
91.19999476	0.00000000	35.90059000	-3.71555100
91.39999474	0.00000000	35.16240000	-3.67249000
91.59999473	0.00000000	34.41191000	-1.02116100
91.79999472	0.00000000	33.61835000	3.20497000
91.99999471	0.00000000	33.24311000	7.80019600
92.19999470	0.00000000	33.20005000	11.61417000
92.39999468	0.00000000	33.20005000	13.14591000
92.59999467	0.00000000	33.20005000	12.03248000
92.79999466	0.00000000	33.15699000	8.96284400
92.99999465	0.00000000	32.73252000	4.73671200
93.19999464	0.00000000	31.61909000	0.51058070
93.39999463	0.00000000	30.50566000	-2.55905500
93.59999461	0.00000000	30.13041000	-3.71555100
93.79999460	0.00000000	30.50566000	-2.55905500
93.99999459	0.00000000	31.66215000	0.51058070
94.19999458	0.00000000	33.24926000	4.73671200
94.39999457	0.00000000	35.16240000	8.91978400
94.59999455	0.00000000	37.11245000	11.61417000
94.79999454	0.00000000	38.23203000	12.03248000
94.99999453	0.00000000	38.60113000	10.49459000
95.19999452	0.00000000	37.39542000	7.38188900
95.39999451	0.00000000	34.73794000	3.20497000
95.59999449	0.00000000	31.61909000	-0.60285430
95.79999448	0.00000000	28.54946000	-2.50984200
95.99999447	0.00000000	26.22416000	-2.22687000
96.19999446	0.00000000	25.47367000	-0.28297240
96.39999445	0.00000000	26.22416000	2.41141700
96.59999444	0.00000000	28.59252000	5.89320800
96.79999442	0.00000000	32.03740000	8.91978400
96.99999441	0.00000000	35.94980000	10.45152000
97.19999440	0.00000000	39.39468000	10.07628000
97.39999439	0.00000000	41.71998000	7.84940900
97.59999438	0.00000000	42.09522000	5.19808000
97.79999436	0.00000000	40.55733000	3.19881900
97.99999435	0.00000000	37.43848000	1.66707700
98.19999434	0.00000000	33.20005000	0.87967510
98.39999433	0.00000000	28.96776000	1.24877000
98.59999432	0.00000000	25.84892000	1.99311000
98.79999430	0.00000000	24.31102000	3.19881900
98.99999429	0.00000000	24.68627000	4.68750000
99.19999428	0.00000000	26.96850000	5.85014700
99.39999427	0.00000000	30.08120000	6.21924200
99.59999426	0.00000000	33.57529000	5.89320800
99.79999425	0.00000000	37.06324000	5.15501900
99.99999423	0.00000000	39.39468000	4.82898600
100.19999422	0.00000000	40.60039000	5.15501900
100.39999421	0.00000000	40.55733000	5.89320800
100.59999420	0.00000000	39.01944000	6.26845500
100.79999419	0.00000000	36.31890000	6.26845500
100.99999417	0.00000000	33.20005000	5.85014700
101.19999416	0.00000000	30.08120000	4.68750000
101.39999415	0.00000000	27.42987000	3.15575800
101.59999414	0.00000000	26.26722000	1.62401600
101.79999413	0.00000000	26.96850000	0.51058070
101.99999411	0.00000000	28.50024000	0.51058070
102.19999410	0.00000000	30.50566000	1.66707700
102.39999409	0.00000000	33.20005000	3.57406500
102.59999408	0.00000000	35.85752000	5.93626900
102.79999407	0.00000000	37.43848000	8.21850300
102.99999406	0.00000000	37.85679000	10.11934000
103.19999404	0.00000000	37.48154000	10.49459000
103.39999403	0.00000000	36.27584000	9.38115100
103.59999402	0.00000000	34.36884000	7.43110200
103.79999401	0.00000000	32.08661000	4.68750000
103.99999400	0.00000000	30.50566000	1.66707700
104.19999398	0.00000000	29.70595000	-0.64591530
104.39999397	0.00000000	29.29380000	-1.39640700
104.59999396	0.00000000	29.70595000	-0.64591530
104.79999395	0.00000000	30.45644000	1.62401600
104.99999394	0.00000000	31.66215000	4.31840500
105.19999392	0.00000000	33.20005000	6.64370100
105.39999391	0.00000000	34.69488000	8.58759800
105.59999390	0.00000000	35.48228000	9.33809000
105.79999389	0.00000000	35.11934000	8.96284400
105.99999388	0.00000000	34.36884000	7.38188900
106.19999387	0.00000000	33.20005000	4.73671200
106.39999385	0.00000000	32.08661000	2.08538400
106.59999384	0.00000000	31.66215000	0.55364170
106.79999383	0.00000000	31.66215000	0.51058070
106.99999382	0.00000000	32.03740000	1.62401600
107.19999381	0.00000000	32.82480000	3.15575800
107.39999379	0.00000000	33.57529000	4.73671200
107.59999378	0.00000000	34.36884000	6.26845500
107.79999377	0.00000000	34.74409000	7.38188900
107.99999376	0.00000000	34.69488000	7.38188900
108.19999375	0.00000000	33.94439000	6.26845500
108.39999374	0.00000000	32.41265000	4.73671200
108.59999372	0.00000000	31.28691000	3.19881900
108.79999371	0.00000000	30.45644000	2.04232300
108.99999370	0.00000000	30.13041000	1.66707700
109.19999369	0.00000000	30.50566000	2.04232300
109.39999368	0.00000000	31.66215000	3.19881900
109.59999366	0.00000000	33.15699000	4.73671200
109.79999365	0.00000000	34.36884000	6.26845500
109.99999364	0.00000000	35.11934000	7.42495000
110.19999363	0.00000000	35.48228000	7.80019600
110.39999362	0.00000000	34.73794000	7.42495000
110.59999360	0.00000000	33.61835000	6.26845500
110.79999359	0.00000000	32.78174000	4.73671200
110.99999358	0.00000000	31.61909000	3.15575800
111.19999357	0.00000000	30.54872000	1.66707700
111.39999356	0.00000000	30.50566000	0.87967510
111.59999355	0.00000000	31.24384000	1.24877000
111.79999353	0.00000000	31.99434000	1.99311000
111.99999352	0.00000000	32.82480000	3.19881900
112.19999351	0.00000000	33.57529000	4.68750000
112.39999350	0.00000000	34.31963000	5.85014700
112.59999349	0.00000000	34.31963000	6.26845500
112.79999347	0.00000000	33.61835000	6.26845500
112.99999346	0.00000000	33.24311000	5.89320800
113.19999345	0.00000000	33.15699000	5.15501900
113.39999344	0.00000000	32.78174000	4.73671200
113.59999343	0.00000000	32.03740000	4.31840500
113.79999341	0.00000000	31.71137000	3.57406500
113.99999340	0.00000000	32.03740000	3.19881900
114.19999339	0.00000000	32.78174000	3.15575800
114.39999338	0.00000000	33.15699000	3.15575800
114.59999337	0.00000000	33.20005000	3.15575800
114.79999336	0.00000000	33.20005000	3.15575800
114.99999334	0.00000000	33.20005000	3.15575800
115.19999333	0.00000000	33.20005000	3.15575800
115.39999332	0.00000000	33.20005000	3.15575800
115.59999331	0.00000000	33.20005000	3.19881900
115.79999330	0.00000000	33.15699000	3.57406500
115.99999328	0.00000000	32.78174000	4.36146600
116.19999327	0.00000000	32.03740000	5.11195900
116.39999326	0.00000000	31.66215000	5.89320800
116.59999325	0.00000000	31.61909000	6.26845500
116.79999324	0.00000000	31.66215000	6.26845500
116.99999322	0.00000000	32.03740000	5.89320800
117.19999321	0.00000000	32.78174000	5.11195900
117.39999320	0.00000000	33.20005000	4.36146600
117.59999319	0.00000000	33.61835000	3.57406500
117.79999318	0.00000000	34.36884000	3.15575800
117.99999317	0.00000000	34.74409000	2.78051200
118.19999315	0.00000000	34.74409000	2.41141700
118.39999314	0.00000000	34.31963000	2.82357300
118.59999313	0.00000000	33.20005000	3.53100400
118.79999312	0.00000000	32.03740000	4.31840500
118.99999311	0.00000000	31.24384000	4.73671200
119.19999309	0.00000000	30.45644000	5.15501900
119.39999308	0.00000000	30.08120000	5.89320800
119.59999307	0.00000000	30.13041000	6.26845500
119.79999306	0.00000000	30.87475000	6.26845500
119.99999305	0.00000000	32.40649000	5.89320800
120.19999303	0.00000000	33.57529000	5.15501900
120.39999302	0.00000000	34.78716000	4.77977300
120.59999301	0.00000000	35.90059000	4.73671200
120.79999300	0.00000000	36.27584000	4.69365100
120.99999299	0.00000000	35.90059000	4.31840500
121.19999298	0.00000000	34.73794000	3.57406500
121.39999296	0.00000000	33.20005000	3.19881900
121.59999295	0.00000000	31.66215000	3.15575800
121.79999294	0.00000000	30.50566000	3.19881900
121.99999293	0.00000000	30.08120000	3.57406500
122.19999292	0.00000000	30.03814000	4.36146600
122.39999290	0.00000000	30.08120000	5.11195900
122.59999289	0.00000000	30.50566000	5.89320800
122.79999288	0.00000000	31.66215000	6.26845500
122.99999287	0.00000000	33.15699000	6.31151500
123.19999286	0.00000000	34.31963000	6.26845500
123.39999284	0.00000000	34.74409000	5.89320800
123.59999283	0.00000000	34.74409000	5.11195900
123.79999282	0.00000000	34.36884000	4.36146600
123.99999281	0.00000000	33.61835000	3.57406500
124.19999280	0.00000000	33.20005000	3.19881900
124.39999279	0.00000000	32.78174000	3.15575800
124.59999277	0.00000000	32.03740000	3.15575800
124.79999276	0.00000000	31.66215000	3.15575800
124.99999275	0.00000000	31.57603000	3.19881900
125.19999274	0.00000000	31.24384000	3.57406500
125.39999273	0.00000000	30.87475000	4.36146600
125.59999271	0.00000000	31.28691000	5.11195900
125.79999270	0.00000000	31.99434000	5.89320800
125.99999269	0.00000000	32.82480000	6.21924200
126.19999268	0.00000000	33.57529000	5.89320800
126.39999267	0.00000000	34.36884000	5.15501900
126.59999265	0.00000000	34.74409000	4.77977300
126.79999264	0.00000000	34.74409000	4.69365100
126.99999263	0.00000000	34.31963000	4.31840500
127.19999262	0.00000000	33.20005000	3.57406500
127.39999261	0.00000000	32.03740000	3.19881900
127.59999260	0.00000000	31.24384000	3.15575800
127.79999258	0.00000000	30.45644000	3.15575800
127.99999257	0.00000000	30.08120000	3.19881900
128.19999256	0.00000000	30.08120000	3.57406500
128.39999255	0.00000000	30.50566000	4.31840500
128.59999254	0.00000000	31.66215000	4.69365100
128.79999252	0.00000000	33.15699000	4.73671200
128.99999251	0.00000000	34.31963000	4.73671200
129.19999250	0.00000000	34.69488000	4.73671200
129.39999249	0.00000000	34.36884000	4.69365100
129.59999248	0.00000000	33.57529000	4.31840500
129.79999246	0.00000000	32.78174000	3.57406500
129.99999245	0.00000000	31.61909000	3.19881900
130.19999244	0.00000000	30.50566000	3.15575800
130.39999243	0.00000000	30.13041000	3.19881900
130.59999242	0.00000000	30.45644000	3.57406500
130.79999241	0.00000000	31.24384000	4.31840500
130.99999239	0.00000000	31.99434000	4.69365100
131.19999238	0.00000000	32.82480000	4.73671200
131.39999237	0.00000000	33.57529000	4.73671200
131.59999236	0.00000000	34.31963000	4.69365100
131.79999235	0.00000000	34.31963000	4.31840500
131.99999233	0.00000000	33.57529000	3.53100400
132.19999232	0.00000000	32.82480000	2.82357300
132.39999231	0.00000000	31.99434000	2.41141700
132.59999230	0.00000000	31.28691000	2.78051200
132.79999229	0.00000000	30.87475000	3.15575800
132.99999227	0.00000000	31.24384000	3.57406500
133.19999226	0.00000000	31.61909000	4.36146600
133.39999225	0.00000000	31.99434000	5.11195900
133.59999224	0.00000000	32.40649000	5.89320800
133.79999223	0.00000000	32.41265000	6.21924200
133.99999222	0.00000000	32.82480000	5.89320800
134.19999220	0.00000000	33.10777000	5.11195900
134.39999219	0.00000000	32.78174000	4.36146600
134.59999218	0.00000000	32.08661000	3.53100400
134.79999217	0.00000000	32.08661000	2.78051200
134.99999216	0.00000000	32.78174000	1.99311000
135.19999214	0.00000000	33.15699000	1.66707700
135.39999213	0.00000000	33.20005000	1.99311000
135.59999212	0.00000000	33.20005000	2.78051200
135.79999211	0.00000000	33.15699000	3.53100400
135.99999210	0.00000000	32.78174000	4.36146600
136.19999208	0.00000000	31.99434000	5.11195900
136.39999207	0.00000000	31.28691000	5.89320800
136.59999206	0.00000000	30.87475000	6.21924200
136.79999205	0.00000000	31.24384000	5.89320800
136.99999204	0.00000000	31.57603000	5.15501900
137.19999203	0.00000000	31.66215000	4.73671200
137.39999201	0.00000000	32.03740000	4.31840500
137.59999200	0.00000000	32.82480000	3.57406500
137.79999199	0.00000000	33.53223000	3.15575800
137.99999198	0.00000000	33.94439000	2.73745100
138.19999197	0.00000000	33.57529000	2.04232300
138.39999195	0.00000000	33.20005000	2.04232300
138.59999194	0.00000000	32.78174000	2.73745100
138.79999193	0.00000000	31.99434000	3.15575800
138.99999192	0.00000000	31.28691000	3.57406500
139.19999191	0.00000000	30.83169000	4.36146600
139.39999189	0.00000000	30.86860000	5.11195900
139.59999188	0.00000000	30.87475000	5.89320800
139.79999187	0.00000000	31.66215000	6.21924200
139.99999186	0.00000000	32.73252000	5.89320800
140.19999185	0.00000000	33.15699000	5.11195900
140.39999184	0.00000000	33.20005000	4.36146600
140.59999182	0.00000000	33.20005000	3.53100400
140.79999181	0.00000000	33.15699000	2.78051200
140.99999180	0.00000000	32.78174000	2.04232300
141.19999179	0.00000000	32.03740000	2.04232300
141.39999178	0.00000000	31.66215000	2.73745100
141.59999176	0.00000000	31.61909000	3.15575800
141.79999175	0.00000000	31.61909000	3.62327700
141.99999174	0.00000000	31.66215000	4.73671200
142.19999173	0.00000000	32.03740000	5.85014700
142.39999172	0.00000000	32.78174000	6.26845500
142.59999170	0.00000000	33.15699000	6.26845500
142.79999169	0.00000000	33.20005000	5.89320800
142.99999168	0.00000000	33.15699000	5.11195900
143.19999167	0.00000000	32.78174000	4.31840500
143.39999166	0.00000000	32.03740000	3.15575800
143.59999165	0.00000000	31.66215000	2.04232300
143.79999163	0.00000000	31.61909000	1.66707700
143.99999162	0.00000000	31.61909000	1.99311000
144.19999161	0.00000000	31.66215000	2.78051200
144.39999160	0.00000000	32.03740000	3.53100400
144.59999159	0.00000000	32.78174000	4.36146600
144.79999157	0.00000000	33.15699000	5.11195900
144.99999156	0.00000000	33.15699000	5.85014700
145.19999155	0.00000000	32.78174000	5.85014700
145.39999154	0.00000000	32.03740000	5.11195900
145.59999153	0.00000000	31.66215000	4.36146600
145.79999151	0.00000000	31.61909000	3.57406500
145.99999150	0.00000000	31.61909000	3.19881900
146.19999149	0.00000000	31.61909000	3.15575800
146.39999148	0.00000000	31.61909000	3.15575800
146.59999147	0.00000000	31.66215000	3.15575800
146.79999146	0.00000000	32.03740000	3.19881900
146.99999144	0.00000000	32.78174000	3.57406500
147.19999143	0.00000000	33.15699000	4.31840500
147.39999142	0.00000000	33.20005000	4.69365100
147.59999141	0.00000000	33.15699000	4.73671200
147.79999140	0.00000000	32.78174000	4.73671200
147.99999138	0.00000000	32.03740000	4.73671200
148.19999137	0.00000000	31.66215000	4.73671200
148.39999136	0.00000000	31.61909000	4.73671200
148.59999135	0.00000000	31.61909000	4.69365100
148.79999134	0.00000000	31.61909000	4.31840500
148.99999132	0.00000000	31.61909000	3.57406500
149.19999131	0.00000000	31.61909000	3.19881900
149.39999130	0.00000000	31.66215000	3.15575800
149.59999129	0.00000000	32.03740000	3.15575800
149.79999128	0.00000000	32.78174000	3.19881900
149.99999127	0.00000000	33.10777000	3.57406500
150.19999125	0.00000000	32.82480000	4.31840500
150.39999124	0.00000000	32.41265000	4.69365100
150.59999123	0.00000000	32.40649000	4.73671200
150.79999122	0.00000000	31.99434000	4.73671200
150.99999121	0.00000000	31.66215000	4.73671200
151.19999119	0.00000000	31.61909000	4.73671200
151.39999118	0.00000000	31.61909000	4.73671200
151.59999117	0.00000000	31.61909000	4.69365100
151.79999116	0.00000000	31.61909000	4.36146600
151.99999115	0.00000000	31.61909000	3.99237200
152.19999113	0.00000000	31.61909000	4.31840500
152.39999112	0.00000000	31.66215000	4.26919300
152.59999111	0.00000000	32.03740000	3.57406500
152.79999110	0.00000000	32.78174000	3.24803100
152.99999109	0.00000000	33.15699000	3.57406500
153.19999108	0.00000000	33.15699000	4.31840500
153.39999106	0.00000000	32.78174000	4.69365100
153.59999105	0.00000000	32.03740000	4.73671200
153.79999104	0.00000000	31.66215000	4.73671200
153.99999103	0.00000000	31.57603000	4.73671200
154.19999102	0.00000000	31.20078000	4.73671200
154.39999100	0.00000000	30.50566000	4.73671200
154.59999099	0.00000000	30.50566000	4.73671200
154.79999098	0.00000000	31.20078000	4.69365100
154.99999097	0.00000000	31.57603000	4.31840500
155.19999096	0.00000000	31.66215000	3.57406500
155.39999094	0.00000000	32.03740000	3.19881900
155.59999093	0.00000000	32.78174000	3.15575800
155.79999092	0.00000000	33.15699000	3.15575800
155.99999091	0.00000000	33.15699000	3.15575800
156.19999090	0.00000000	32.78174000	3.19881900
156.39999089	0.00000000	32.03740000	3.57406500
156.59999087	0.00000000	31.66215000	4.31840500
156.79999086	0.00000000	31.57603000	4.69365100
156.99999085	0.00000000	31.24384000	4.73671200
157.19999084	0.00000000	30.87475000	4.73671200
157.39999083	0.00000000	31.24384000	4.73671200
157.59999081	0.00000000	31.57603000	4.73671200
157.79999080	0.00000000	31.61909000	4.69365100
157.99999079	0.00000000	31.61909000	4.31840500
158.19999078	0.00000000	31.66215000	3.57406500
158.39999077	0.00000000	32.03740000	3.19881900
158.59999075	0.00000000	32.78174000	3.15575800
158.79999074	0.00000000	33.10777000	3.15575800
158.99999073	0.00000000	32.78174000	3.19881900
159.19999072	0.00000000	32.03740000	3.57406500
159.39999071	0.00000000	31.66215000	4.31840500
159.59999070	0.00000000	31.61909000	4.69365100
159.79999068	0.00000000	31.61909000	4.73671200
159.99999067	0.00000000	31.61909000	4.73671200
160.19999066	0.00000000	31.61909000	4.73671200
160.39999065	0.00000000	31.61909000	4.73671200
160.59999064	0.00000000	31.61909000	4.69365100
160.79999062	0.00000000	31.61909000	4.31840500
160.99999061	0.00000000	31.61909000	3.57406500
161.19999060	0.00000000	31.61909000	3.19881900
161.39999059	0.00000000	31.61909000	3.15575800
161.59999058	0.00000000	31.61909000	3.15575800
161.79999056	0.00000000	31.66215000	3.19881900
161.99999055	0.00000000	32.03740000	3.53100400
162.19999054	0.00000000	32.73252000	3.94315900
162.39999053	0.00000000	32.73252000	3.94931100
162.59999052	0.00000000	32.03740000	4.36146600
162.79999051	0.00000000	31.66215000	4.69365100
162.99999049	0.00000000	31.61909000	4.73671200
163.19999048	0.00000000	31.61909000	4.73671200
163.39999047	0.00000000	31.61909000	4.73671200
163.59999046	0.00000000	31.61909000	4.69365100
163.79999045	0.00000000	31.61909000	4.31840500
163.99999043	0.00000000	31.61909000	3.57406500
164.19999042	0.00000000	31.61909000	3.19881900
164.39999041	0.00000000	31.61909000	3.15575800
164.59999040	0.00000000	31.66215000	3.15575800
164.79999039	0.00000000	31.99434000	3.15575800
164.99999037	0.00000000	32.40649000	3.15575800
165.19999036	0.00000000	32.36959000	3.15575800
165.39999035	0.00000000	32.40649000	3.19881900
165.59999034	0.00000000	31.99434000	3.57406500
165.79999033	0.00000000	31.66215000	4.31840500
165.99999032	0.00000000	31.61909000	4.69365100
166.19999030	0.00000000	31.61909000	4.73671200
166.39999029	0.00000000	31.57603000	4.73671200
166.59999028	0.00000000	31.24384000	4.69365100
166.79999027	0.00000000	30.87475000	4.31840500
166.99999026	0.00000000	31.24384000	3.57406500
167.19999024	0.00000000	31.57603000	3.19881900
167.39999023	0.00000000	31.61909000	3.19881900
167.59999022	0.00000000	31.61909000	3.53100400
167.79999021	0.00000000	31.66215000	3.94315900
167.99999020	0.00000000	31.99434000	3.94931100
168.19999018	0.00000000	32.40649000	4.36146600
168.39999017	0.00000000	32.36959000	4.69365100
168.59999016	0.00000000	32.40649000	4.69365100
168.79999015	0.00000000	31.99434000	4.31840500
168.99999014	0.00000000	31.66215000	3.57406500
169.19999013	0.00000000	31.61909000	3.19881900
169.39999011	0.00000000	31.61909000	3.15575800
169.59999010	0.00000000	31.61909000	3.19881900
169.79999009	0.00000000	31.61909000	3.53100400
169.99999008	0.00000000	31.61909000	3.94315900
170.19999007	0.00000000	31.61909000	3.90625000
170.39999005	0.00000000	31.61909000	3.98622000
170.59999004	0.00000000	31.61909000	3.90625000
170.79999003	0.00000000	31.61909000	3.98622000
170.99999002	0.00000000	31.66215000	3.94931100
171.19999001	0.00000000	31.99434000	4.31840500
171.39998999	0.00000000	32.36343000	4.26919300
171.59998998	0.00000000	31.99434000	3.57406500
171.79998997	0.00000000	31.66215000	3.19881900
171.99998996	0.00000000	31.61909000	3.15575800
172.19998995	0.00000000	31.61909000	3.15575800
172.39998994	0.00000000	31.61909000	3.15575800
172.59998992	0.00000000	31.61909000	3.15575800
172.79998991	0.00000000	31.61909000	3.15575800
172.99998990	0.00000000	31.61909000	3.19881900
173.19998989	0.00000000	31.61909000	3.57406500
173.39998988	0.00000000	31.61909000	4.31840500
173.59998986	0.00000000	31.61909000	4.69365100
173.79998985	0.00000000	31.61909000	4.69365100
173.99998984	0.00000000	31.61909000	4.31840500
174.19998983	0.00000000	31.61909000	3.57406500
174.39998982	0.00000000	31.61909000	3.19881900
174.59998980	0.00000000	31.61909000	3.15575800
174.79998979	0.00000000	31.61909000	3.15575800
174.99998978	0.00000000	31.61909000	3.15575800
175.19998977	0.00000000	31.61909000	3.15575800
175.39998976	0.00000000	31.61909000	3.15575800
175.59998975	0.00000000	31.61909000	3.19881900
175.79998973	0.00000000	31.61909000	3.53100400
175.99998972	0.00000000	31.61909000	3.94315900
176.19998971	0.00000000	31.61909000	3.94931100
176.39998970	0.00000000	31.61909000	4.36146600
176.59998969	0.00000000	31.61909000	4.64443900
176.79998967	0.00000000	31.61909000	4.36146600
176.99998966	0.00000000	31.61909000	3.94931100
177.19998965	0.00000000	31.61909000	3.94315900
177.39998964	0.00000000	31.61909000	3.53100400
177.59998963	0.00000000	31.61909000	3.19881900
177.79998961	0.00000000	31.61909000	3.15575800
177.99998960	0.00000000	31.61909000	3.15575800
178.19998959	0.00000000	31.61909000	3.19881900
178.39998958	0.00000000	31.61909000	3.53100400
178.59998957	0.00000000	31.61909000	3.94315900
178.79998956	0.00000000	31.61909000	3.94931100
178.99998954	0.00000000	31.61909000	4.36146600
179.19998953	0.00000000	31.61909000	4.69365100
179.39998952	0.00000000	31.61909000	4.69365100
179.59998951	0.00000000	31.61909000	4.31840500
179.79998950	0.00000000	31.61909000	3.62327700
179.99998948	0.00000000	31.61909000	3.57406500
180.19998947	0.00000000	31.61909000	3.90009800
180.39998946	0.00000000	31.61909000	3.53100400
180.59998945	0.00000000	31.61909000	3.19881900
180.79998944	0.00000000	31.61909000	3.15575800
180.99998942	0.00000000	31.61909000	3.19881900
181.19998941	0.00000000	31.61909000	3.57406500
181.39998940	0.00000000	31.61909000	4.31840500
181.59998939	0.00000000	31.61909000	4.69365100
181.79998938	0.00000000	31.61909000	4.73671200
181.99998937	0.00000000	31.61909000	4.73671200
182.19998935	0.00000000	31.61909000	4.73671200
182.39998934	0.00000000	31.61909000	4.69365100
182.59998933	0.00000000	31.61909000	4.31840500
182.79998932	0.00000000	31.61909000	3.57406500
182.99998931	0.00000000	31.61909000	3.19881900
183.19998929	0.00000000	31.61909000	3.15575800
183.39998928	0.00000000	31.61909000	3.15575800
183.59998927	0.00000000	31.61909000	3.15575800
183.79998926	0.00000000	31.61909000	3.19881900
183.99998925	0.00000000	31.61909000	3.57406500
184.19998923	0.00000000	31.61909000	4.26919300
184.39998922	0.00000000	31.57603000	4.31840500
184.59998921	0.00000000	31.24384000	3.99237200
184.79998920	0.00000000	30.87475000	4.36146600
184.99998919	0.00000000	31.24384000	4.69365100
185.19998918	0.00000000	31.57603000	4.73671200
185.39998916	0.00000000	31.61909000	4.69365100
185.59998915	0.00000000	31.61909000	4.31840500
185.79998914	0.00000000	31.61909000	3.57406500
185.99998913	0.00000000	31.61909000	3.19881900
186.19998912	0.00000000	31.61909000	3.15575800
186.39998910	0.00000000	31.61909000	3.15575800
186.59998909	0.00000000	31.61909000	3.15575800
186.79998908	0.00000000	31.57603000	3.15575800
186.99998907	0.00000000	31.24384000	3.19881900
187.19998906	0.00000000	30.83169000	3.57406500
187.39998904	0.00000000	30.86860000	4.31840500
187.59998903	0.00000000	30.78863000	4.69365100
187.79998902	0.00000000	30.86860000	4.73671200
187.99998901	0.00000000	30.83169000	4.73671200
188.19998900	0.00000000	31.24384000	4.69365100
188.39998899	0.00000000	31.57603000	4.31840500
188.59998897	0.00000000	31.61909000	3.57406500
188.79998896	0.00000000	31.61909000	3.19881900
188.99998895	0.00000000	31.61909000	3.15575800
189.19998894	0.00000000	31.61909000	3.15575800
189.39998893	0.00000000	31.61909000	3.15575800
189.59998891	0.00000000	31.57603000	3.15575800
189.79998890	0.00000000	31.24384000	3.15575800
189.99998889	0.00000000	30.83169000	3.19881900
190.19998888	0.00000000	30.82554000	3.57406500
190.39998887	0.00000000	30.41338000	4.31840500
190.59998885	0.00000000	30.08120000	4.64443900
190.79998884	0.00000000	30.08120000	4.36146600
190.99998883	0.00000000	30.45644000	3.99237200
191.19998882	0.00000000	31.20078000	4.36146600
191.39998881	0.00000000	31.57603000	4.64443900
191.59998880	0.00000000	31.61909000	4.31840500
191.79998878	0.00000000	31.61909000	3.57406500
191.99998877	0.00000000	31.61909000	3.19881900
192.19998876	0.00000000	31.61909000	3.15575800
192.39998875	0.00000000	31.61909000	3.15575800
192.59998874	0.00000000	31.57603000	3.15575800
192.79998872	0.00000000	31.24384000	3.15575800
192.99998871	0.00000000	30.83169000	3.15575800
193.19998870	0.00000000	30.82554000	3.15575800
193.39998869	0.00000000	30.41338000	3.19881900
193.59998868	0.00000000	30.08120000	3.53100400
193.79998866	0.00000000	30.03814000	3.94315900
193.99998865	0.00000000	30.08120000	3.94931100
194.19998864	0.00000000	30.45644000	4.36146600
194.39998863	0.00000000	31.20078000	4.64443900
194.59998862	0.00000000	31.57603000	4.36146600
194.79998861	0.00000000	31.61909000	3.94931100
194.99998859	0.00000000	31.61909000	3.94315900
195.19998858	0.00000000	31.61909000	3.53100400
195.39998857	0.00000000	31.61909000	3.19881900
195.59998856	0.00000000	31.61909000	3.15575800
195.79998855	0.00000000	31.57603000	3.15575800
195.99998853	0.00000000	31.20078000	3.15575800
