Time	Channel A	Channel B	Channel C
(us)	(V)	(mV)	(mV)

-4.49999956	0.00000000	99.61245000	38.26894000
-4.29999957	0.00000000	99.61245000	38.63804000
-4.09999958	0.00000000	99.61245000	38.26894000
-3.89999959	0.00000000	99.61245000	37.93676000
-3.69999960	0.00000000	99.61245000	37.89370000
-3.49999962	0.00000000	99.61245000	37.89370000
-3.29999963	0.00000000	99.61245000	37.93676000
-3.09999964	0.00000000	99.61245000	38.26894000
-2.89999965	0.00000000	99.61245000	38.63804000
-2.69999966	0.00000000	99.61245000	38.26894000
-2.49999968	0.00000000	99.61245000	37.93676000
-2.29999969	0.00000000	99.61245000	37.89370000
-2.09999970	0.00000000	99.61245000	37.89370000
-1.89999971	0.00000000	99.61245000	37.89370000
-1.69999972	0.00000000	99.61245000	37.89370000
-1.49999973	0.00000000	99.61245000	37.89370000
-1.29999975	0.00000000	99.61245000	37.89370000
-1.09999976	0.00000000	99.61245000	37.89370000
-0.89999977	0.00000000	99.61245000	37.93676000
-0.69999978	0.00000000	99.61245000	38.26894000
-0.49999979	0.00000000	99.61245000	38.63804000
-0.29999981	0.31803640	99.61245000	38.26894000
-0.09999982	0.63668800	99.61245000	37.93676000
0.10000017	0.95533960	99.61245000	37.89370000
0.30000016	1.11466500	99.61245000	37.89370000
0.50000015	0.79601380	99.61245000	37.89370000
0.70000013	0.31803640	99.61245000	37.89370000
0.90000012	-0.47736220	99.61245000	37.93676000
1.10000011	-1.59264300	99.61245000	38.31200000
1.30000010	-2.38927200	99.61245000	39.05635000
1.50000009	-2.70792300	99.61245000	39.43159000
1.70000008	-2.38927200	99.61245000	39.47465000
1.90000006	-1.27399100	99.61245000	39.47465000
2.10000005	0.63668800	99.61245000	39.47465000
2.30000004	2.70792300	99.61245000	39.47465000
2.50000003	4.45989200	99.61245000	39.47465000
2.70000002	5.25652100	99.61245000	39.43159000
2.90000000	4.77854300	99.61245000	39.05635000
3.09999999	2.86724900	99.61245000	38.36122000
3.29999998	-0.15871060	99.61245000	38.31200000
3.49999997	-3.66326300	99.61245000	38.68110000
3.69999996	-6.53112700	99.61245000	38.68725000
3.89999994	-7.96444400	99.65550000	39.14247000
4.09999993	-7.32714100	100.03080000	39.84990000
4.29999992	-4.93786900	100.78120000	40.63730000
4.49999991	-0.95533960	101.15650000	40.96333000
4.69999990	3.50393700	101.15650000	40.63730000
4.89999989	7.32714100	100.78120000	39.89296000
5.09999987	9.23905000	100.03080000	39.51771000
5.29999986	9.07972400	99.65550000	39.43159000
5.49999985	6.53112700	99.61245000	39.05635000
5.69999984	2.22994600	99.61245000	38.31200000
5.89999983	-2.54859700	99.61245000	37.98597000
6.09999981	-6.69045300	99.61245000	38.31200000
6.29999980	-9.07972400	99.61245000	39.05635000
6.49999979	-9.23905000	99.61245000	39.43159000
6.69999978	-7.00848900	99.65550000	39.47465000
6.89999977	-3.18590100	99.98769000	39.47465000
7.09999975	1.11466500	100.39980000	39.47465000
7.29999974	4.93786900	100.36290000	39.47465000
7.49999973	7.32714100	100.39980000	39.43159000
7.69999972	7.64579200	99.98769000	39.09941000
7.89999971	6.21247500	99.65550000	38.73031000
8.09999970	3.34522600	99.61245000	39.09941000
8.29999968	0.00000000	99.65550000	39.43159000
8.49999967	-2.86724900	99.98769000	39.47465000
8.69999966	-4.77854300	100.35680000	39.47465000
8.89999965	-5.09719500	99.98769000	39.47465000
9.09999964	-4.30056600	99.65550000	39.47465000
9.29999962	-2.54859700	99.61245000	39.47465000
9.49999961	-0.63668800	99.65550000	39.47465000
9.69999960	1.11466500	100.03080000	39.47465000
9.89999959	2.22994600	100.73200000	39.47465000
10.09999958	2.54859700	100.73200000	39.47465000
10.29999956	2.22994600	100.03080000	39.43159000
10.49999955	1.43331700	99.65550000	39.09941000
10.69999954	0.47736220	99.61245000	38.73031000
10.89999953	-0.15871060	99.61245000	39.09941000
11.09999952	-0.79601380	99.61245000	39.43159000
11.29999951	-0.95533960	99.61245000	39.47465000
11.49999949	-0.95533960	99.61245000	39.47465000
11.69999948	-0.79601380	99.61245000	39.47465000
11.89999947	-0.47736220	99.65550000	39.47465000
12.09999946	-0.15871060	99.98769000	39.47465000
12.29999945	-0.15871060	100.35680000	39.47465000
12.49999943	0.00000000	99.98769000	39.47465000
12.69999942	0.00000000	99.65550000	39.47465000
12.89999941	0.00000000	99.61245000	39.47465000
13.09999940	0.00000000	99.65550000	39.47465000
13.29999939	0.00000000	99.98769000	39.47465000
13.49999937	0.00000000	100.35680000	39.43159000
13.69999936	0.00000000	99.98769000	39.05635000
13.89999935	0.00000000	99.65550000	38.36122000
14.09999934	-0.15871060	99.61245000	38.36122000
14.29999933	-0.15871060	99.61245000	39.05635000
14.49999932	-0.15871060	99.61245000	39.38238000
14.69999930	-0.15871060	99.61245000	39.05635000
14.89999929	0.00000000	99.61245000	38.31200000
15.09999928	0.00000000	99.61245000	37.93676000
15.29999927	0.00000000	99.61245000	37.89370000
15.49999926	0.00000000	99.61245000	37.89370000
15.69999924	0.00000000	99.56938000	37.89370000
15.89999923	0.00000000	99.23720000	37.93676000
16.09999922	0.00000000	98.86810000	38.26894000
16.29999921	0.00000000	99.23720000	38.68110000
16.49999920	-0.15871060	99.61245000	38.68725000
16.69999919	-0.15871060	100.03080000	39.09941000
16.89999917	0.00000000	100.78120000	39.38238000
17.09999916	0.00000000	101.19960000	39.09941000
17.29999915	0.00000000	101.57480000	38.73031000
17.49999914	0.00000000	101.94390000	39.09941000
17.69999913	0.00000000	101.57480000	39.43159000
17.89999911	0.00000000	101.19960000	39.47465000
18.09999910	0.00000000	100.73200000	39.47465000
18.29999909	0.00000000	99.56938000	39.47465000
18.49999908	0.00000000	98.03149000	39.47465000
18.69999907	0.00000000	96.49360000	39.47465000
18.89999905	0.00000000	95.38016000	39.47465000
19.09999904	0.00000000	95.38016000	39.47465000
19.29999903	0.00000000	96.58587000	39.47465000
19.49999902	0.00000000	98.96038000	39.47465000
19.69999901	0.00000000	102.82360000	39.47465000
19.89999900	0.00000000	107.05590000	39.47465000
20.09999898	0.00000000	110.50690000	39.47465000
20.29999897	0.00000000	112.40770000	39.47465000
20.49999896	0.00000000	111.53420000	39.47465000
20.69999895	0.00000000	107.70790000	39.47465000
20.89999894	0.00000000	101.43950000	39.47465000
21.09999892	0.00000000	94.07603000	39.47465000
21.29999891	0.00000000	86.35580000	39.47465000
21.49999890	0.00000000	80.67790000	39.47465000
21.69999889	0.00000000	79.18922000	39.47465000
21.89999888	0.00000000	82.72637000	39.47465000
22.09999886	0.00000000	91.24016000	39.47465000
22.29999885	0.00000000	102.86660000	39.47465000
22.49999884	0.00000000	115.24970000	39.47465000
22.69999883	0.00000000	126.03960000	39.47465000
22.89999882	0.00000000	132.09280000	39.47465000
23.09999881	0.00000000	131.25000000	39.51771000
23.29999879	0.00000000	122.69320000	39.89296000
23.49999878	0.00000000	108.04010000	40.63730000
23.69999877	0.00000000	90.59423000	41.01255000
23.89999876	0.00000000	73.97884000	41.05561000
24.09999875	0.00000000	61.69414000	41.01255000
24.29999873	0.00000000	57.54798000	40.58809000
24.49999872	0.00000000	63.41043000	39.43159000
24.69999871	0.00000000	78.48794000	37.89370000
24.89999870	0.00000000	99.74778000	36.31274000
25.09999869	0.00000000	122.13340000	34.78100000
25.29999867	0.00000000	140.64960000	33.66756000
25.49999866	0.00000000	150.60900000	33.66756000
25.69999865	0.00000000	149.07730000	34.82406000
25.89999864	0.00000000	136.33120000	36.82332000
26.09999863	0.00000000	115.39120000	39.98523000
26.29999862	0.00000000	90.30511000	44.16830000
26.49999860	0.00000000	66.81225000	47.97613000
26.69999859	0.00000000	51.40871000	49.88312000
26.89999858	0.00000000	47.45940000	49.50787000
27.09999857	0.00000000	55.54872000	46.72736000
27.29999856	0.00000000	73.32677000	41.65846000
27.49999854	0.00000000	96.86884000	34.64567000
27.69999853	0.00000000	120.82920000	26.97465000
27.89999852	0.00000000	139.40080000	20.47244000
28.09999851	0.00000000	149.12030000	17.44587000
28.29999850	0.00000000	147.95770000	19.02682000
28.49999848	0.00000000	136.41730000	25.25221000
28.69999847	0.00000000	117.48280000	35.33464000
28.89999846	0.00000000	95.47243000	47.28100000
29.09999845	0.00000000	75.37524000	58.47686000
29.29999844	0.00000000	61.78641000	66.14788000
29.49999843	0.00000000	57.08661000	68.42396000
29.69999841	0.00000000	61.69414000	64.10556000
29.89999840	0.00000000	74.35408000	53.64788000
30.09999839	0.00000000	91.33242000	38.96407000
30.29999838	0.00000000	108.41530000	23.16683000
30.49999837	0.00000000	122.78540000	10.06398000
30.69999835	0.00000000	131.71750000	2.72514700
30.89999834	0.00000000	133.72290000	2.76820900
31.09999833	0.00000000	129.06620000	10.52534000
31.29999832	0.00000000	118.63930000	24.83391000
31.49999831	0.00000000	104.77980000	42.58735000
31.69999829	0.00000000	91.24016000	59.96555000
31.89999828	0.00000000	80.72095000	73.11147000
32.09999827	0.00000000	74.90772000	79.29380000
32.29999826	0.00000000	74.86466000	77.34374000
32.49999825	0.00000000	80.21653000	67.30437000
32.69999824	0.00000000	89.09940000	51.46407000
32.89999822	0.00000000	99.56938000	33.29232000
33.09999821	0.00000000	109.62110000	16.28937000
33.29999820	0.00000000	117.01530000	4.34916300
33.49999819	0.00000000	120.50930000	0.03075787
33.69999818	0.00000000	119.71580000	3.88164400
33.89999816	0.00000000	114.32090000	14.70842000
34.09999815	0.00000000	105.94240000	30.55487000
34.29999814	0.00000000	97.42863000	47.93307000
34.49999813	0.00000000	90.81570000	62.98597000
34.69999812	0.00000000	86.91559000	72.65009000
34.89999810	0.00000000	86.54035000	74.60629000
35.09999809	0.00000000	89.60999000	68.88533000
35.29999808	0.00000000	95.38016000	57.31422000
35.49999807	0.00000000	102.26990000	42.63041000
35.69999806	0.00000000	108.04010000	27.94660000
35.89999805	0.00000000	111.15900000	16.38164000
36.09999803	0.00000000	111.20200000	10.61762000
36.29999802	0.00000000	108.50760000	12.10630000
36.49999801	0.00000000	103.89390000	20.14641000
36.69999800	0.00000000	98.49901000	32.04355000
36.89999799	0.00000000	93.88533000	44.77116000
37.09999797	0.00000000	91.19093000	55.18577000
37.29999796	0.00000000	91.19093000	60.94365000
37.49999795	0.00000000	93.88533000	60.56840000
37.69999794	0.00000000	98.44980000	54.10925000
37.89999793	0.00000000	103.47560000	44.16830000
38.09999791	0.00000000	107.34500000	33.80290000
38.29999790	0.00000000	109.71330000	25.76279000
38.49999789	0.00000000	110.08860000	22.69931000
38.69999788	0.00000000	108.55070000	25.30143000
38.89999787	0.00000000	105.43180000	32.22195000
39.09999786	0.00000000	101.19960000	41.38164000
39.29999784	0.00000000	96.91805000	50.20300000
39.49999783	0.00000000	93.46702000	55.55487000
39.69999782	0.00000000	91.52312000	56.29921000
39.89999781	0.00000000	91.88607000	51.64862000
40.09999780	0.00000000	93.79920000	42.49508000
40.29999778	0.00000000	96.91805000	32.17273000
40.49999777	0.00000000	100.78120000	23.72047000
40.69999776	0.00000000	104.31840000	19.49434000
40.89999775	0.00000000	107.43110000	20.60777000
41.09999774	0.00000000	109.71330000	26.41486000
41.29999772	0.00000000	110.08860000	35.61762000
41.49999771	0.00000000	108.59370000	45.97687000
41.69999770	0.00000000	105.85010000	54.02312000
41.89999769	0.00000000	102.36220000	57.92323000
42.09999768	0.00000000	98.49901000	56.76057000
42.29999767	0.00000000	95.42323000	51.03962000
42.49999765	0.00000000	93.79920000	42.58735000
42.69999764	0.00000000	93.42396000	33.75369000
42.89999763	0.00000000	94.17445000	26.79011000
43.09999762	0.00000000	96.11835000	23.30216000
43.29999761	0.00000000	98.40673000	23.62820000
43.49999759	0.00000000	100.78120000	27.43602000
43.69999758	0.00000000	102.68820000	33.20005000
43.89999757	0.00000000	103.89390000	39.38238000
44.09999756	0.00000000	104.31840000	44.82037000
44.29999755	0.00000000	104.36150000	48.25910000
44.49999753	0.00000000	104.36150000	49.08956000
44.69999752	0.00000000	104.36150000	47.18872000
44.89999751	0.00000000	104.36150000	43.79306000
45.09999750	0.00000000	104.31840000	39.89296000
45.29999749	0.00000000	103.85090000	36.40502000
45.49999748	0.00000000	102.26990000	33.66756000
45.69999746	0.00000000	99.56938000	32.17273000
45.89999745	0.00000000	96.40748000	32.50492000
46.09999744	0.00000000	92.95644000	34.44881000
46.29999743	0.00000000	89.94217000	37.06324000
46.49999742	0.00000000	89.23474000	39.84375000
46.69999740	0.00000000	91.14788000	41.75689000
46.89999739	0.00000000	95.42323000	43.33169000
47.09999738	0.00000000	101.24260000	43.70079000
47.29999737	0.00000000	107.48030000	42.96260000
47.49999736	0.00000000	113.25050000	41.75073000
47.69999734	0.00000000	117.01530000	39.42544000
47.89999733	0.00000000	117.01530000	36.78026000
48.09999732	0.00000000	113.15820000	34.82406000
48.29999731	0.00000000	106.54530000	33.66756000
48.49999730	0.00000000	97.98843000	33.71063000
48.69999729	0.00000000	89.23474000	35.24852000
48.89999727	0.00000000	83.05241000	37.94291000
49.09999726	0.00000000	81.50836000	41.05561000
49.29999725	0.00000000	84.21506000	44.11909000
49.49999724	0.00000000	91.19093000	46.39517000
49.69999723	0.00000000	100.78120000	46.81348000
49.89999721	0.00000000	110.08860000	45.65698000
50.09999720	0.00000000	117.43360000	43.28247000
50.29999719	0.00000000	121.20450000	39.43159000
50.49999718	0.00000000	119.66660000	35.24852000
50.69999717	0.00000000	113.20130000	32.12967000
50.89999715	0.00000000	104.31220000	30.59793000
51.09999714	0.00000000	95.04797000	31.01624000
51.29999713	0.00000000	87.37696000	33.71063000
51.49999712	0.00000000	83.88287000	37.93676000
51.69999711	0.00000000	85.00246000	42.53814000
51.89999710	0.00000000	89.98523000	46.43824000
52.09999708	0.00000000	97.70545000	48.72047000
52.29999707	0.00000000	105.76400000	49.13262000
52.49999706	0.00000000	112.31540000	47.18872000
52.69999705	0.00000000	115.39120000	43.74385000
52.89999704	0.00000000	114.27170000	39.47465000
53.09999702	0.00000000	109.71330000	35.29158000
53.29999701	0.00000000	103.15570000	32.59719000
53.49999700	0.00000000	96.62893000	32.12967000
53.69999699	0.00000000	91.60925000	33.24926000
53.89999698	0.00000000	89.70226000	35.19931000
54.09999696	0.00000000	91.19093000	37.94291000
54.29999695	0.00000000	95.42323000	40.96333000
54.49999694	0.00000000	101.15030000	43.23941000
54.69999693	0.00000000	106.55140000	43.61467000
54.89999692	0.00000000	109.99630000	42.16904000
55.09999691	0.00000000	110.78370000	39.89296000
55.29999689	0.00000000	108.50760000	37.98597000
55.49999688	0.00000000	104.31220000	36.82332000
55.69999687	0.00000000	99.66166000	36.82332000
55.89999686	0.00000000	95.42323000	37.98597000
56.09999685	0.00000000	92.77190000	39.84990000
56.29999683	0.00000000	92.77190000	41.75073000
56.49999682	0.00000000	95.38016000	42.49508000
56.69999681	0.00000000	99.19414000	42.07677000
56.89999680	0.00000000	102.73130000	40.12672000
57.09999679	0.00000000	105.80710000	36.68799000
57.29999677	0.00000000	107.70790000	33.29232000
57.49999676	0.00000000	107.34500000	30.97318000
57.69999675	0.00000000	105.47490000	30.64099000
57.89999674	0.00000000	102.73130000	32.59719000
58.09999673	0.00000000	99.70472000	36.86639000
58.29999672	0.00000000	97.37943000	42.58735000
58.49999670	0.00000000	96.58587000	47.92691000
58.69999669	0.00000000	96.96111000	51.03962000
58.89999668	0.00000000	98.44980000	51.41486000
59.09999667	0.00000000	100.35680000	49.04650000
59.29999666	0.00000000	101.57480000	43.61467000
59.49999664	0.00000000	102.78050000	36.36196000
59.69999663	0.00000000	103.80780000	29.43528000
59.89999662	0.00000000	103.47560000	24.83391000
60.09999661	0.00000000	101.99310000	23.67741000
60.29999660	0.00000000	100.86740000	26.41486000
60.49999658	0.00000000	100.03080000	32.55413000
60.69999657	0.00000000	99.70472000	40.63730000
60.89999656	0.00000000	100.08000000	48.30832000
61.09999655	0.00000000	101.24260000	53.78321000
61.29999654	0.00000000	102.73740000	56.02239000
61.49999653	0.00000000	103.89390000	54.43528000
61.69999651	0.00000000	104.26920000	48.30832000
61.89999650	0.00000000	103.89390000	39.89296000
62.09999649	0.00000000	102.68820000	31.75443000
62.29999648	0.00000000	100.78120000	25.20915000
62.49999647	0.00000000	98.49901000	22.09646000
62.69999645	0.00000000	96.96111000	22.84080000
62.89999644	0.00000000	96.54281000	26.74705000
63.09999643	0.00000000	96.96111000	33.71063000
63.29999642	0.00000000	98.49901000	42.11983000
63.49999641	0.00000000	100.82430000	49.42175000
63.69999639	0.00000000	103.15570000	53.74015000
63.89999638	0.00000000	105.47490000	54.53371000
64.09999637	0.00000000	106.96970000	52.24532000
64.29999636	0.00000000	106.96970000	47.18872000
64.49999635	0.00000000	105.43180000	40.63730000
64.69999634	0.00000000	102.78050000	33.71063000
64.89999632	0.00000000	100.08000000	28.32185000
65.09999631	0.00000000	98.12376000	25.95349000
65.29999630	0.00000000	96.96111000	26.27953000
65.49999629	0.00000000	96.96111000	28.97392000
65.69999628	0.00000000	98.12376000	33.20005000
65.89999626	0.00000000	100.03080000	37.89370000
66.09999625	0.00000000	102.36220000	42.53814000
66.29999624	0.00000000	104.22610000	46.39517000
66.49999623	0.00000000	105.01350000	48.39444000
66.69999622	0.00000000	104.26920000	48.85580000
66.89999620	0.00000000	102.78050000	48.39444000
67.09999619	0.00000000	101.19960000	46.43824000
67.29999618	0.00000000	99.70472000	43.00566000
67.49999617	0.00000000	98.96038000	39.51771000
67.69999616	0.00000000	99.70472000	36.36196000
67.89999615	0.00000000	101.24260000	33.61835000
68.09999613	0.00000000	103.19880000	31.66830000
68.29999612	0.00000000	105.43180000	30.51181000
68.49999611	0.00000000	106.55140000	30.55487000
68.69999610	0.00000000	105.80710000	32.12967000
68.89999609	0.00000000	103.85090000	35.24852000
69.09999607	0.00000000	100.73200000	39.51771000
69.29999606	0.00000000	96.91805000	44.11909000
69.49999605	0.00000000	93.88533000	48.01919000
69.69999604	0.00000000	92.72884000	50.35064000
69.89999603	0.00000000	93.88533000	51.08883000
70.09999601	0.00000000	96.96111000	49.46481000
70.29999600	0.00000000	101.24260000	45.28174000
70.49999599	0.00000000	105.89940000	39.89296000
70.69999598	0.00000000	110.08860000	34.83022000
70.89999597	0.00000000	112.40770000	30.55487000
71.09999596	0.00000000	112.03860000	27.90354000
71.29999594	0.00000000	109.71330000	27.90354000
71.49999593	0.00000000	105.38880000	30.55487000
71.69999592	0.00000000	99.66166000	34.78100000
71.89999591	0.00000000	94.26057000	39.43159000
72.09999590	0.00000000	90.77263000	43.65773000
72.29999588	0.00000000	89.60999000	46.35211000
72.49999587	0.00000000	91.14788000	46.81348000
72.69999586	0.00000000	95.00492000	45.65698000
72.89999585	0.00000000	100.03080000	43.37475000
73.09999584	0.00000000	105.43180000	40.26821000
73.29999582	0.00000000	109.66410000	37.61073000
73.49999581	0.00000000	111.62030000	35.66683000
73.69999580	0.00000000	111.29430000	35.29158000
73.89999579	0.00000000	108.96900000	36.36196000
74.09999578	0.00000000	105.47490000	37.85064000
74.29999577	0.00000000	101.19960000	39.00713000
74.49999575	0.00000000	96.96111000	39.38238000
74.69999574	0.00000000	93.88533000	39.00713000
74.89999573	0.00000000	92.72884000	37.85064000
75.09999572	0.00000000	93.84227000	36.36196000
75.29999571	0.00000000	96.49360000	35.19931000
75.49999569	0.00000000	99.61245000	34.87328000
75.69999568	0.00000000	102.68820000	35.70989000
75.89999567	0.00000000	105.01350000	38.40428000
76.09999566	0.00000000	105.85010000	42.16904000
76.29999565	0.00000000	105.85010000	45.23868000
76.49999563	0.00000000	105.05660000	46.81348000
76.69999562	0.00000000	103.19880000	46.77042000
76.89999561	0.00000000	101.71010000	44.82037000
77.09999560	0.00000000	101.24260000	40.92027000
77.29999559	0.00000000	101.19960000	35.94365000
77.49999558	0.00000000	101.19960000	30.93012000
77.69999556	0.00000000	101.19960000	27.48524000
77.89999555	0.00000000	101.15650000	26.37180000
78.09999554	0.00000000	100.73200000	28.27879000
78.29999553	0.00000000	99.61245000	32.87401000
78.49999552	0.00000000	98.49901000	38.31200000
78.69999550	0.00000000	98.12376000	44.11909000
78.89999549	0.00000000	98.49901000	49.08956000
79.09999548	0.00000000	99.70472000	51.41486000
79.29999547	0.00000000	101.61790000	51.08883000
79.49999546	0.00000000	103.94320000	48.35138000
79.69999544	0.00000000	105.85010000	43.74385000
79.89999543	0.00000000	107.01280000	38.31200000
80.09999542	0.00000000	107.01280000	33.29232000
80.29999541	0.00000000	105.85010000	29.43528000
80.49999540	0.00000000	103.89390000	27.90354000
80.69999539	0.00000000	101.19960000	28.97392000
80.89999537	0.00000000	98.49901000	31.66830000
81.09999536	0.00000000	96.58587000	35.19931000
81.29999535	0.00000000	95.84153000	39.47465000
81.49999534	0.00000000	97.00417000	43.70079000
81.69999533	0.00000000	99.61245000	46.81348000
81.89999531	0.00000000	102.31300000	48.43750000
82.09999530	0.00000000	104.31840000	48.81274000
82.29999529	0.00000000	105.85010000	48.01919000
82.49999528	0.00000000	106.59450000	45.70005000
82.69999527	0.00000000	105.85010000	42.58735000
82.89999525	0.00000000	104.36150000	39.05635000
83.09999524	0.00000000	102.78050000	35.19931000
83.29999523	0.00000000	101.24260000	32.12967000
83.49999522	0.00000000	100.08000000	30.55487000
83.69999521	0.00000000	99.65550000	30.55487000
83.89999520	0.00000000	99.65550000	32.08661000
84.09999518	0.00000000	100.03080000	34.82406000
84.29999517	0.00000000	100.82430000	38.36122000
84.49999516	0.00000000	101.57480000	42.63041000
84.69999515	0.00000000	102.31300000	46.81348000
84.89999514	0.00000000	102.36220000	49.50787000
85.09999512	0.00000000	102.03620000	49.93233000
85.29999511	0.00000000	102.40530000	48.39444000
85.49999510	0.00000000	102.78050000	45.23868000
85.69999509	0.00000000	103.19880000	40.58809000
85.89999508	0.00000000	103.94320000	35.20546000
86.09999506	0.00000000	104.26920000	30.59793000
86.29999505	0.00000000	103.89390000	27.90354000
86.49999504	0.00000000	102.73740000	27.90354000
86.69999503	0.00000000	101.19960000	30.55487000
86.89999502	0.00000000	99.66166000	34.83022000
87.09999501	0.00000000	98.49901000	39.84990000
87.29999499	0.00000000	98.07455000	44.86343000
87.49999498	0.00000000	98.12376000	48.30832000
87.69999497	0.00000000	98.91731000	49.46481000
87.89999496	0.00000000	100.82430000	47.93307000
88.09999495	0.00000000	102.73740000	44.11909000
88.29999493	0.00000000	104.31840000	39.47465000
88.49999492	0.00000000	105.43180000	34.83022000
88.69999491	0.00000000	105.43180000	30.97318000
88.89999490	0.00000000	104.31840000	29.06619000
89.09999489	0.00000000	102.78050000	29.48450000
89.29999487	0.00000000	101.19960000	32.54798000
89.49999486	0.00000000	99.66166000	37.51845000
89.69999485	0.00000000	98.49901000	42.49508000
89.89999484	0.00000000	98.12376000	46.39517000
90.09999483	0.00000000	98.49901000	48.25910000
90.29999482	0.00000000	99.66166000	47.50861000
90.49999480	0.00000000	101.19960000	44.07603000
90.69999479	0.00000000	102.73740000	39.47465000
90.89999478	0.00000000	103.85090000	34.83022000
91.09999477	0.00000000	103.89390000	31.01624000
91.29999476	0.00000000	103.19880000	29.52756000
91.49999474	0.00000000	102.78050000	30.97318000
91.69999473	0.00000000	102.36220000	34.45497000
91.89999472	0.00000000	101.61790000	38.68725000
92.09999471	0.00000000	101.24260000	43.32554000
92.29999470	0.00000000	101.19960000	46.72736000
92.49999468	0.00000000	101.19960000	47.88385000
92.69999467	0.00000000	101.19960000	46.35211000
92.89999466	0.00000000	101.15650000	42.53814000
93.09999465	0.00000000	100.78120000	37.93676000
93.29999464	0.00000000	100.03080000	33.71063000
93.49999463	0.00000000	99.65550000	31.01624000
93.69999461	0.00000000	99.61245000	30.64099000
93.89999460	0.00000000	99.70472000	32.54798000
94.09999459	0.00000000	100.49830000	36.40502000
94.29999458	0.00000000	102.40530000	40.96333000
94.49999457	0.00000000	104.31840000	44.82037000
94.69999455	0.00000000	105.89940000	46.72736000
94.89999454	0.00000000	107.01280000	46.35211000
95.09999453	0.00000000	106.96970000	43.70079000
95.29999452	0.00000000	105.43180000	39.89296000
95.49999451	0.00000000	102.73130000	36.40502000
95.69999449	0.00000000	99.66166000	33.71063000
95.89999448	0.00000000	96.96111000	32.54798000
96.09999447	0.00000000	95.38016000	33.33538000
96.29999446	0.00000000	95.00492000	35.61762000
96.49999445	0.00000000	95.84153000	39.09941000
96.69999444	0.00000000	98.54208000	42.49508000
96.89999442	0.00000000	102.36220000	44.82037000
97.09999441	0.00000000	105.85010000	45.23868000
97.29999440	0.00000000	108.59370000	44.11909000
97.49999439	0.00000000	110.13160000	42.16904000
97.69999438	0.00000000	110.13160000	39.51771000
97.89999436	0.00000000	108.55070000	37.24163000
98.09999435	0.00000000	105.43180000	36.40502000
98.29999434	0.00000000	101.24260000	36.31274000
98.49999433	0.00000000	97.37943000	36.44808000
98.69999432	0.00000000	95.00492000	37.57381000
98.89999430	0.00000000	93.84227000	39.79454000
99.09999429	0.00000000	94.26057000	40.92027000
99.29999428	0.00000000	96.58587000	41.05561000
99.49999427	0.00000000	100.03080000	41.05561000
99.69999426	0.00000000	103.94320000	41.05561000
99.89999425	0.00000000	107.38800000	41.05561000
100.09999423	0.00000000	109.71330000	41.05561000
100.29999422	0.00000000	110.13160000	41.05561000
100.49999421	0.00000000	109.01210000	41.05561000
100.69999420	0.00000000	107.05590000	41.05561000
100.89999419	0.00000000	104.31840000	41.01255000
101.09999417	0.00000000	101.19960000	40.58809000
101.29999416	0.00000000	98.12376000	39.43159000
101.49999415	0.00000000	95.84153000	37.89370000
101.69999414	0.00000000	95.42323000	36.36196000
101.89999413	0.00000000	96.54281000	35.24852000
102.09999411	0.00000000	98.44980000	35.29158000
102.29999410	0.00000000	100.82430000	36.78026000
102.49999409	0.00000000	103.15570000	39.09941000
102.69999408	0.00000000	105.47490000	41.43085000
102.89999407	0.00000000	107.01280000	43.75000000
103.09999406	0.00000000	107.43110000	45.23868000
103.29999404	0.00000000	107.01280000	45.23868000
103.49999403	0.00000000	105.47490000	43.70079000
103.69999402	0.00000000	103.15570000	40.96333000
103.89999401	0.00000000	100.86740000	37.56767000
104.09999400	0.00000000	98.91731000	34.46112000
104.29999398	0.00000000	98.12376000	32.91707000
104.49999397	0.00000000	98.07455000	32.50492000
104.69999396	0.00000000	98.49901000	33.71063000
104.89999395	0.00000000	99.66166000	36.36196000
105.09999394	0.00000000	101.19960000	39.38238000
105.29999392	0.00000000	102.73740000	41.75073000
105.49999391	0.00000000	103.89390000	42.91338000
105.69999390	0.00000000	104.26920000	43.32554000
105.89999389	0.00000000	103.89390000	42.49508000
106.09999388	0.00000000	102.78050000	40.63730000
106.29999387	0.00000000	101.61790000	38.31200000
106.49999385	0.00000000	100.82430000	36.40502000
106.69999384	0.00000000	100.08000000	35.24852000
106.89999383	0.00000000	100.08000000	35.24852000
107.09999382	0.00000000	100.82430000	36.40502000
107.29999381	0.00000000	101.61790000	38.31200000
107.49999379	0.00000000	102.78050000	40.58809000
107.69999378	0.00000000	103.85090000	42.11983000
107.89999377	0.00000000	103.89390000	42.53814000
108.09999376	0.00000000	103.15570000	42.16904000
108.29999375	0.00000000	102.36220000	40.96333000
108.49999374	0.00000000	101.19960000	39.09941000
108.69999372	0.00000000	100.08000000	37.19857000
108.89999371	0.00000000	99.65550000	36.40502000
109.09999370	0.00000000	99.65550000	36.35580000
109.29999369	0.00000000	100.08000000	36.82332000
109.49999368	0.00000000	101.24260000	38.36122000
109.69999366	0.00000000	102.73740000	40.63730000
109.89999365	0.00000000	103.94320000	42.54429000
110.09999364	0.00000000	104.69360000	43.70079000
110.29999363	0.00000000	105.05660000	43.70079000
110.49999362	0.00000000	104.26920000	42.58735000
110.69999360	0.00000000	102.82360000	41.05561000
110.89999359	0.00000000	101.61790000	39.47465000
111.09999358	0.00000000	100.82430000	37.93676000
111.29999357	0.00000000	100.08000000	36.78026000
111.49999356	0.00000000	100.08000000	36.40502000
111.69999355	0.00000000	100.82430000	36.78026000
111.89999353	0.00000000	101.57480000	37.89370000
112.09999352	0.00000000	102.40530000	39.05635000
112.29999351	0.00000000	103.15570000	39.89296000
112.49999350	0.00000000	103.89390000	41.00639000
112.69999349	0.00000000	103.89390000	41.75073000
112.89999347	0.00000000	103.19880000	41.43085000
113.09999346	0.00000000	102.78050000	41.05561000
113.29999345	0.00000000	102.36220000	40.63730000
113.49999344	0.00000000	101.61790000	39.89296000
113.69999343	0.00000000	101.24260000	39.51771000
113.89999341	0.00000000	101.24260000	39.47465000
114.09999340	0.00000000	101.61790000	39.47465000
114.29999339	0.00000000	102.36220000	39.43159000
114.49999338	0.00000000	102.73740000	39.05635000
114.69999337	0.00000000	102.78050000	38.31200000
114.89999336	0.00000000	102.78050000	37.93676000
115.09999334	0.00000000	102.78050000	37.89370000
115.29999333	0.00000000	102.78050000	37.89370000
115.49999332	0.00000000	102.78050000	37.93676000
115.69999331	0.00000000	102.78050000	38.31200000
115.89999330	0.00000000	102.73740000	39.09941000
116.09999328	0.00000000	102.36220000	39.84990000
116.29999327	0.00000000	101.61790000	40.63730000
116.49999326	0.00000000	101.24260000	41.01255000
116.69999325	0.00000000	101.19960000	41.01255000
116.89999324	0.00000000	101.24260000	40.63730000
117.09999322	0.00000000	101.61790000	39.84990000
117.29999321	0.00000000	102.36220000	39.09941000
117.49999320	0.00000000	102.78050000	38.31200000
117.69999319	0.00000000	103.19880000	37.89370000
117.89999318	0.00000000	103.94320000	37.47539000
118.09999317	0.00000000	104.26920000	36.78026000
118.29999315	0.00000000	103.94320000	36.78026000
118.49999314	0.00000000	103.15570000	37.47539000
118.69999313	0.00000000	102.40530000	37.89370000
118.89999312	0.00000000	101.57480000	38.31200000
119.09999311	0.00000000	100.82430000	39.09941000
119.29999309	0.00000000	100.03080000	39.84990000
119.49999308	0.00000000	99.70472000	40.63730000
119.69999307	0.00000000	100.03080000	40.96333000
119.89999306	0.00000000	100.82430000	40.63730000
120.09999305	0.00000000	101.61790000	39.89296000
120.29999303	0.00000000	102.82360000	39.51771000
120.49999302	0.00000000	104.31840000	39.43159000
120.69999301	0.00000000	105.43180000	39.05635000
120.89999300	0.00000000	105.47490000	38.31200000
121.09999299	0.00000000	104.73670000	37.93676000
121.29999298	0.00000000	103.94320000	37.89370000
121.49999296	0.00000000	102.73740000	37.89370000
121.69999295	0.00000000	101.19960000	37.89370000
121.89999294	0.00000000	99.70472000	37.93676000
122.09999293	0.00000000	98.96038000	38.31200000
122.29999292	0.00000000	99.61245000	39.09941000
122.49999290	0.00000000	100.35680000	39.84990000
122.69999289	0.00000000	100.45520000	40.63730000
122.89999288	0.00000000	101.28570000	41.01255000
123.09999287	0.00000000	102.73740000	41.05561000
123.29999286	0.00000000	103.89390000	41.01255000
123.49999284	0.00000000	104.31840000	40.63730000
123.69999283	0.00000000	104.36150000	39.84990000
123.89999282	0.00000000	104.31840000	39.09941000
124.09999281	0.00000000	103.94320000	38.31200000
124.29999280	0.00000000	103.15570000	37.93676000
124.49999279	0.00000000	102.40530000	37.89370000
124.69999277	0.00000000	101.61790000	37.93676000
124.89999276	0.00000000	101.19960000	38.31200000
125.09999275	0.00000000	100.82430000	39.05635000
125.29999274	0.00000000	100.45520000	39.43159000
125.49999273	0.00000000	100.82430000	39.51771000
125.69999271	0.00000000	101.19960000	39.89296000
125.89999270	0.00000000	101.61790000	40.63730000
126.09999269	0.00000000	102.44830000	41.01255000
126.29999268	0.00000000	103.53100000	41.01255000
126.49999267	0.00000000	104.68130000	40.63730000
126.69999265	0.00000000	104.69360000	39.89296000
126.89999264	0.00000000	104.36150000	39.47465000
127.09999263	0.00000000	103.89390000	39.05635000
127.29999262	0.00000000	102.78050000	38.31200000
127.49999261	0.00000000	101.61790000	37.93676000
127.69999260	0.00000000	100.82430000	37.93676000
127.89999258	0.00000000	100.08000000	38.31200000
128.09999257	0.00000000	100.08000000	39.05635000
128.29999256	0.00000000	100.82430000	39.47465000
128.49999255	0.00000000	101.61790000	39.89296000
128.69999254	0.00000000	102.78050000	40.63730000
128.89999252	0.00000000	103.89390000	40.96333000
129.09999251	0.00000000	104.31840000	40.63730000
129.29999250	0.00000000	104.31840000	39.89296000
129.49999249	0.00000000	103.94320000	39.51771000
129.69999248	0.00000000	103.15570000	39.43159000
129.89999246	0.00000000	102.40530000	39.09941000
130.09999245	0.00000000	101.57480000	38.73031000
130.29999244	0.00000000	100.86740000	39.09941000
130.49999243	0.00000000	100.45520000	39.43159000
130.69999242	0.00000000	100.86740000	39.47465000
130.89999241	0.00000000	101.61790000	39.51771000
131.09999239	0.00000000	102.78050000	39.89296000
131.29999238	0.00000000	103.89390000	40.58809000
131.49999237	0.00000000	104.31840000	40.58809000
131.69999236	0.00000000	104.36150000	39.84990000
131.89999235	0.00000000	104.31840000	39.09941000
132.09999233	0.00000000	103.89390000	38.31200000
132.29999232	0.00000000	102.78050000	37.93676000
132.49999231	0.00000000	101.66710000	37.89370000
132.69999230	0.00000000	101.29180000	37.93676000
132.89999229	0.00000000	101.57480000	38.31200000
133.09999227	0.00000000	101.98700000	39.09941000
133.29999226	0.00000000	101.99310000	39.84990000
133.49999225	0.00000000	102.40530000	40.63730000
133.69999224	0.00000000	102.73740000	41.01255000
133.89999223	0.00000000	102.78050000	41.01255000
134.09999222	0.00000000	102.78050000	40.58809000
134.29999220	0.00000000	102.78050000	39.47465000
134.49999219	0.00000000	102.78050000	38.36122000
134.69999218	0.00000000	102.78050000	37.89370000
134.89999217	0.00000000	102.78050000	37.47539000
135.09999216	0.00000000	102.78050000	36.78026000
135.29999214	0.00000000	102.82360000	36.78026000
135.49999213	0.00000000	103.15570000	37.47539000
135.69999212	0.00000000	103.52480000	37.89370000
135.89999211	0.00000000	103.15570000	38.31200000
136.09999210	0.00000000	102.78050000	39.09941000
136.29999208	0.00000000	102.36220000	39.84990000
136.49999207	0.00000000	101.61790000	40.58809000
136.69999206	0.00000000	101.24260000	40.58809000
136.89999205	0.00000000	101.19960000	39.84990000
137.09999204	0.00000000	101.24260000	39.14247000
137.29999203	0.00000000	101.61790000	38.68725000
137.49999201	0.00000000	102.40530000	38.68110000
137.69999200	0.00000000	103.15570000	38.22588000
137.89999199	0.00000000	103.94320000	37.51845000
138.09999198	0.00000000	104.26920000	36.73105000
138.29999197	0.00000000	103.94320000	36.40502000
138.49999195	0.00000000	103.19880000	36.78026000
138.69999194	0.00000000	102.78050000	37.89370000
138.89999193	0.00000000	102.36220000	39.00713000
139.09999192	0.00000000	101.61790000	39.47465000
139.29999191	0.00000000	101.24260000	39.89296000
139.49999189	0.00000000	101.24260000	40.63730000
139.69999188	0.00000000	101.61790000	41.01255000
139.89999187	0.00000000	102.40530000	41.05561000
140.09999186	0.00000000	103.11270000	41.01255000
140.29999185	0.00000000	103.52480000	40.58809000
140.49999184	0.00000000	103.15570000	39.47465000
140.69999182	0.00000000	102.82360000	38.31200000
140.89999181	0.00000000	102.78050000	37.51845000
141.09999180	0.00000000	102.73740000	36.78026000
141.29999179	0.00000000	102.36220000	36.78026000
141.49999178	0.00000000	101.61790000	37.51845000
141.69999176	0.00000000	101.29180000	38.31200000
141.89999175	0.00000000	101.61790000	39.47465000
142.09999174	0.00000000	102.36220000	40.63730000
142.29999173	0.00000000	102.78050000	41.43085000
142.49999172	0.00000000	103.15570000	42.16904000
142.69999170	0.00000000	103.52480000	42.11983000
142.89999169	0.00000000	103.15570000	41.05561000
143.09999168	0.00000000	102.82360000	39.89296000
143.29999167	0.00000000	102.78050000	39.09941000
143.49999166	0.00000000	102.78050000	38.31200000
143.69999165	0.00000000	102.78050000	37.93676000
143.89999163	0.00000000	102.78050000	37.93676000
144.09999162	0.00000000	102.78050000	38.31200000
144.29999161	0.00000000	102.82360000	39.05635000
144.49999160	0.00000000	103.19880000	39.47465000
144.69999159	0.00000000	103.94320000	39.89296000
144.89999157	0.00000000	104.26920000	40.63730000
145.09999156	0.00000000	103.98620000	41.01255000
145.29999155	0.00000000	103.53100000	41.01255000
145.49999154	0.00000000	103.19270000	40.63730000
145.69999153	0.00000000	102.41140000	39.84990000
145.89999151	0.00000000	102.44830000	39.09941000
146.09999150	0.00000000	102.73740000	38.31200000
146.29999149	0.00000000	102.78050000	37.93676000
146.49999148	0.00000000	102.78050000	37.89370000
146.69999147	0.00000000	102.82360000	37.93676000
146.89999146	0.00000000	103.15570000	38.31200000
147.09999144	0.00000000	103.56790000	39.05635000
147.29999143	0.00000000	103.57410000	39.43159000
147.49999142	0.00000000	103.94320000	39.47465000
147.69999141	0.00000000	103.89390000	39.47465000
147.89999140	0.00000000	103.19880000	39.47465000
148.09999138	0.00000000	102.78050000	39.47465000
148.29999137	0.00000000	102.40530000	39.47465000
148.49999136	0.00000000	101.99310000	39.43159000
148.69999135	0.00000000	102.03000000	39.05635000
148.89999134	0.00000000	101.99310000	38.31200000
149.09999132	0.00000000	102.40530000	37.93676000
149.29999131	0.00000000	102.73740000	37.89370000
149.49999130	0.00000000	102.78050000	37.89370000
149.69999129	0.00000000	102.78050000	37.89370000
149.89999128	0.00000000	102.82360000	37.93676000
150.09999127	0.00000000	103.15570000	38.31200000
150.29999125	0.00000000	103.52480000	39.05635000
150.49999124	0.00000000	103.15570000	39.43159000
150.69999123	0.00000000	102.82360000	39.47465000
150.89999122	0.00000000	102.73740000	39.47465000
151.09999121	0.00000000	102.36220000	39.47465000
151.29999119	0.00000000	101.61790000	39.43159000
151.49999118	0.00000000	101.29180000	39.05635000
151.69999117	0.00000000	101.61790000	38.31200000
151.89999116	0.00000000	102.31300000	37.89370000
152.09999115	0.00000000	102.36220000	37.56152000
152.29999113	0.00000000	102.03620000	37.52460000
152.49999112	0.00000000	102.40530000	38.26279000
152.69999111	0.00000000	102.78050000	38.22588000
152.89999110	0.00000000	103.19880000	37.93676000
153.09999109	0.00000000	103.89390000	37.93676000
153.29999108	0.00000000	103.89390000	38.31200000
153.49999106	0.00000000	103.19880000	39.05635000
153.69999105	0.00000000	102.82360000	39.43159000
153.89999104	0.00000000	102.73740000	39.47465000
154.09999103	0.00000000	102.36220000	39.47465000
154.29999102	0.00000000	101.61790000	39.47465000
154.49999100	0.00000000	101.29180000	39.47465000
154.69999099	0.00000000	101.61790000	39.47465000
154.89999098	0.00000000	102.36220000	39.43159000
155.09999097	0.00000000	102.73740000	39.05635000
155.29999096	0.00000000	102.82360000	38.36122000
155.49999094	0.00000000	103.19880000	38.36122000
155.69999093	0.00000000	103.94320000	39.05635000
155.89999092	0.00000000	104.26920000	39.43159000
156.09999091	0.00000000	103.94320000	39.47465000
156.29999090	0.00000000	103.19880000	39.47465000
156.49999089	0.00000000	102.78050000	39.47465000
156.69999087	0.00000000	102.36220000	39.51771000
156.89999086	0.00000000	101.61790000	39.89296000
157.09999085	0.00000000	101.29180000	40.63730000
157.29999084	0.00000000	101.61790000	41.01255000
157.49999083	0.00000000	102.36220000	41.01255000
157.69999081	0.00000000	102.73740000	40.63730000
157.89999080	0.00000000	102.78050000	39.89296000
158.09999079	0.00000000	102.78050000	39.51771000
158.29999078	0.00000000	102.82360000	39.43159000
158.49999077	0.00000000	103.19880000	39.09941000
158.69999075	0.00000000	103.94320000	38.73031000
158.89999074	0.00000000	104.31840000	39.09941000
159.09999073	0.00000000	104.31840000	39.43159000
159.29999072	0.00000000	103.94320000	39.47465000
159.49999071	0.00000000	103.19880000	39.51771000
159.69999070	0.00000000	102.82360000	39.89296000
159.89999068	0.00000000	102.78050000	40.63730000
160.09999067	0.00000000	102.78050000	41.01255000
160.29999066	0.00000000	102.78050000	41.01255000
160.49999065	0.00000000	102.73740000	40.63730000
160.69999064	0.00000000	102.40530000	39.89296000
160.89999062	0.00000000	102.03620000	39.47465000
161.09999061	0.00000000	102.40530000	39.05635000
161.29999060	0.00000000	102.73740000	38.31200000
161.49999059	0.00000000	102.78050000	37.98597000
161.69999058	0.00000000	102.78050000	38.31200000
161.89999056	0.00000000	102.82360000	39.05635000
162.09999055	0.00000000	103.15570000	39.43159000
162.29999054	0.00000000	103.52480000	39.47465000
162.49999053	0.00000000	103.15570000	39.47465000
162.69999052	0.00000000	102.82360000	39.47465000
162.89999051	0.00000000	102.78050000	39.47465000
163.09999049	0.00000000	102.73740000	39.47465000
163.29999048	0.00000000	102.36220000	39.43159000
163.49999047	0.00000000	101.61790000	39.09941000
163.69999046	0.00000000	101.24260000	38.68725000
163.89999045	0.00000000	101.24260000	38.68110000
164.09999043	0.00000000	101.61790000	38.26894000
164.29999042	0.00000000	102.36220000	37.93676000
164.49999041	0.00000000	102.73740000	37.89370000
164.69999040	0.00000000	102.78050000	37.89370000
164.89999039	0.00000000	102.78050000	37.89370000
165.09999037	0.00000000	102.82360000	37.93676000
165.29999036	0.00000000	103.15570000	38.26894000
165.49999035	0.00000000	103.52480000	38.68110000
165.69999034	0.00000000	103.15570000	38.68725000
165.89999033	0.00000000	102.82360000	39.09941000
166.09999032	0.00000000	102.73740000	39.43159000
166.29999030	0.00000000	102.36220000	39.47465000
166.49999029	0.00000000	101.61790000	39.43159000
166.69999028	0.00000000	101.29180000	39.05635000
166.89999027	0.00000000	101.61790000	38.31200000
167.09999026	0.00000000	102.36220000	37.93676000
167.29999024	0.00000000	102.73740000	37.89370000
167.49999023	0.00000000	102.78050000	37.89370000
167.69999022	0.00000000	102.78050000	37.89370000
167.89999021	0.00000000	102.78050000	37.89370000
168.09999020	0.00000000	102.78050000	37.89370000
168.29999018	0.00000000	102.78050000	37.93676000
168.49999017	0.00000000	102.78050000	38.26894000
168.69999016	0.00000000	102.78050000	38.63804000
168.89999015	0.00000000	102.78050000	38.31200000
169.09999014	0.00000000	102.78050000	38.31200000
169.29999013	0.00000000	102.78050000	38.68110000
169.49999011	0.00000000	102.78050000	38.68725000
169.69999010	0.00000000	102.78050000	39.09941000
169.89999009	0.00000000	102.78050000	39.43159000
170.09999008	0.00000000	102.78050000	39.47465000
170.29999007	0.00000000	102.78050000	39.47465000
170.49999005	0.00000000	102.78050000	39.47465000
170.69999004	0.00000000	102.78050000	39.47465000
170.89999003	0.00000000	102.78050000	39.47465000
171.09999002	0.00000000	102.78050000	39.47465000
171.29999001	0.00000000	102.78050000	39.47465000
171.49998999	0.00000000	102.78050000	39.47465000
171.69998998	0.00000000	102.78050000	39.47465000
171.89998997	0.00000000	102.78050000	39.47465000
172.09998996	0.00000000	102.78050000	39.47465000
172.29998995	0.00000000	102.78050000	39.51771000
172.49998994	0.00000000	102.78050000	39.84990000
172.69998992	0.00000000	102.78050000	40.21899000
172.89998991	0.00000000	102.78050000	39.84990000
173.09998990	0.00000000	102.78050000	39.51771000
173.29998989	0.00000000	102.78050000	39.47465000
173.49998988	0.00000000	102.78050000	39.47465000
173.69998986	0.00000000	102.78050000	39.47465000
173.89998985	0.00000000	102.78050000	39.47465000
174.09998984	0.00000000	102.78050000	39.47465000
174.29998983	0.00000000	102.78050000	39.47465000
174.49998982	0.00000000	102.78050000	39.47465000
174.69998980	0.00000000	102.78050000	39.47465000
174.89998979	0.00000000	102.78050000	39.43159000
175.09998978	0.00000000	102.78050000	39.09941000
175.29998977	0.00000000	102.78050000	38.73031000
175.49998976	0.00000000	102.78050000	39.09941000
175.69998975	0.00000000	102.78050000	39.43159000
175.89998973	0.00000000	102.78050000	39.47465000
176.09998972	0.00000000	102.78050000	39.47465000
176.29998971	0.00000000	102.78050000	39.47465000
176.49998970	0.00000000	102.78050000	39.47465000
176.69998969	0.00000000	102.78050000	39.47465000
176.89998967	0.00000000	102.78050000	39.47465000
177.09998966	0.00000000	102.78050000	39.47465000
177.29998965	0.00000000	102.78050000	39.47465000
177.49998964	0.00000000	102.78050000	39.47465000
177.69998963	0.00000000	102.78050000	39.47465000
177.89998961	0.00000000	102.78050000	39.47465000
178.09998960	0.00000000	102.78050000	39.47465000
178.29998959	0.00000000	102.78050000	39.47465000
178.49998958	0.00000000	102.78050000	39.47465000
178.69998957	0.00000000	102.78050000	39.47465000
178.89998956	0.00000000	102.78050000	39.47465000
179.09998954	0.00000000	102.78050000	39.47465000
179.29998953	0.00000000	102.78050000	39.47465000
179.49998952	0.00000000	102.82360000	39.47465000
179.69998951	0.00000000	103.15570000	39.47465000
179.89998950	0.00000000	103.52480000	39.47465000
180.09998948	0.00000000	103.15570000	39.43159000
180.29998947	0.00000000	102.82360000	39.05635000
180.49998946	0.00000000	102.78050000	38.36122000
180.69998945	0.00000000	102.78050000	38.36122000
180.89998944	0.00000000	102.78050000	39.05635000
181.09998942	0.00000000	102.78050000	39.43159000
181.29998941	0.00000000	102.78050000	39.47465000
181.49998940	0.00000000	102.78050000	39.47465000
181.69998939	0.00000000	102.78050000	39.43159000
181.89998938	0.00000000	102.78050000	39.09941000
182.09998937	0.00000000	102.78050000	38.73031000
182.29998935	0.00000000	102.78050000	39.05635000
182.49998934	0.00000000	102.78050000	39.00713000
182.69998933	0.00000000	102.78050000	38.31200000
182.89998932	0.00000000	102.78050000	37.93676000
183.09998931	0.00000000	102.78050000	37.89370000
183.29998929	0.00000000	102.78050000	37.89370000
183.49998928	0.00000000	102.78050000	37.89370000
183.69998927	0.00000000	102.78050000	37.89370000
183.89998926	0.00000000	102.78050000	37.89370000
184.09998925	0.00000000	102.78050000	37.89370000
184.29998923	0.00000000	102.78050000	37.93676000
184.49998922	0.00000000	102.78050000	38.31200000
184.69998921	0.00000000	102.78050000	39.05635000
184.89998920	0.00000000	102.78050000	39.43159000
185.09998919	0.00000000	102.78050000	39.47465000
185.29998918	0.00000000	102.78050000	39.47465000
185.49998916	0.00000000	102.78050000	39.43159000
185.69998915	0.00000000	102.78050000	39.05635000
185.89998914	0.00000000	102.78050000	38.31200000
186.09998913	0.00000000	102.78050000	37.93676000
186.29998912	0.00000000	102.82360000	37.89370000
186.49998910	0.00000000	103.15570000	37.89370000
186.69998909	0.00000000	103.52480000	37.89370000
186.89998908	0.00000000	103.15570000	37.93676000
187.09998907	0.00000000	102.82360000	38.31200000
187.29998906	0.00000000	102.78050000	39.05635000
187.49998904	0.00000000	102.78050000	39.43159000
187.69998903	0.00000000	102.78050000	39.47465000
187.89998902	0.00000000	102.78050000	39.47465000
188.09998901	0.00000000	102.78050000	39.47465000
188.29998900	0.00000000	102.78050000	39.47465000
188.49998899	0.00000000	102.78050000	39.47465000
188.69998897	0.00000000	102.82360000	39.43159000
188.89998896	0.00000000	103.15570000	39.09941000
189.09998895	0.00000000	103.56790000	38.73031000
189.29998894	0.00000000	103.53100000	39.09941000
189.49998893	0.00000000	103.56790000	39.43159000
189.69998891	0.00000000	103.15570000	39.47465000
189.89998890	0.00000000	102.82360000	39.47465000
190.09998889	0.00000000	102.78050000	39.47465000
190.29998888	0.00000000	102.78050000	39.47465000
190.49998887	0.00000000	102.78050000	39.47465000
190.69998885	0.00000000	102.78050000	39.47465000
190.89998884	0.00000000	102.78050000	39.47465000
191.09998883	0.00000000	102.78050000	39.47465000
191.29998882	0.00000000	102.82360000	39.47465000
191.49998881	0.00000000	103.19880000	39.47465000
191.69998880	0.00000000	103.94320000	39.47465000
191.89998878	0.00000000	104.26920000	39.47465000
192.09998877	0.00000000	103.94320000	39.43159000
192.29998876	0.00000000	103.24800000	39.09941000
192.49998875	0.00000000	103.19880000	38.73031000
192.69998874	0.00000000	103.52480000	39.09941000
192.89998872	0.00000000	103.15570000	39.43159000
193.09998871	0.00000000	102.82360000	39.47465000
193.29998870	0.00000000	102.78050000	39.47465000
193.49998869	0.00000000	102.78050000	39.47465000
193.69998868	0.00000000	102.78050000	39.47465000
193.89998866	0.00000000	102.78050000	39.47465000
194.09998865	0.00000000	102.78050000	39.47465000
194.29998864	0.00000000	102.82360000	39.47465000
194.49998863	0.00000000	103.19880000	39.47465000
194.69998862	0.00000000	103.94320000	39.47465000
194.89998861	0.00000000	104.26920000	39.43159000
195.09998859	0.00000000	103.94320000	39.05635000
195.29998858	0.00000000	103.19880000	38.31200000
195.49998857	0.00000000	102.82360000	37.93676000
195.69998856	0.00000000	102.78050000	37.89370000
195.89998855	0.00000000	102.78050000	37.89370000
196.09998853	0.00000000	102.78050000	37.89370000
