Time	Channel A	Channel B	Channel C
(us)	(V)	(mV)	(mV)

-4.59999956	0.00000000	49.01575000	11.04823000
-4.39999957	0.00000000	49.01575000	11.04823000
-4.19999958	0.00000000	49.01575000	11.04823000
-3.99999959	0.00000000	49.01575000	11.04823000
-3.79999960	0.00000000	49.01575000	11.04823000
-3.59999962	0.00000000	49.01575000	11.04823000
-3.39999963	0.00000000	49.01575000	11.04823000
-3.19999964	0.00000000	49.01575000	11.04823000
-2.99999965	0.00000000	49.01575000	11.04823000
-2.79999966	0.00000000	49.01575000	11.04823000
-2.59999968	0.00000000	49.01575000	11.04823000
-2.39999969	0.00000000	49.01575000	11.04823000
-2.19999970	0.00000000	49.01575000	11.04823000
-1.99999971	0.00000000	49.01575000	11.04823000
-1.79999972	0.00000000	49.01575000	11.04823000
-1.59999973	0.00000000	49.01575000	11.04823000
-1.39999975	0.00000000	49.01575000	11.04823000
-1.19999976	0.00000000	49.01575000	11.04823000
-0.99999977	0.00000000	49.01575000	11.04823000
-0.79999978	0.00000000	49.01575000	11.04823000
-0.59999979	0.00000000	49.01575000	11.04823000
-0.39999981	0.00000000	49.01575000	11.04823000
-0.19999982	0.31803640	49.01575000	11.04823000
0.00000017	0.79601380	49.01575000	11.04823000
0.20000016	0.95533960	49.01575000	11.04823000
0.40000015	1.11466500	48.97269000	11.04823000
0.60000013	0.79601380	48.59744000	11.00517000
0.80000012	0.15871060	47.90231000	10.62992000
1.00000011	-0.63668800	47.90231000	9.89173200
1.20000010	-1.59264300	48.54823000	9.56569900
1.40000009	-2.38927200	48.59744000	9.89173200
1.60000008	-2.70792300	48.27140000	10.62992000
1.80000006	-2.38927200	48.64050000	11.00517000
2.00000005	-1.11466500	48.97269000	11.04823000
2.20000004	0.79601380	48.97269000	11.04823000
2.40000003	2.86724900	48.64050000	11.04823000
2.60000002	4.61921700	48.27140000	11.04823000
2.80000000	5.41584600	48.64050000	11.04823000
2.99999999	4.77854300	48.97269000	11.00517000
3.19999998	2.70792300	49.01575000	10.62992000
3.39999997	-0.31803640	49.01575000	9.93479300
3.59999996	-3.82258900	49.01575000	9.93479300
3.79999994	-6.69045300	49.01575000	10.62992000
3.99999993	-7.96444400	49.01575000	11.00517000
4.19999992	-7.32714100	49.01575000	11.09129000
4.39999991	-4.77854300	49.01575000	11.46653000
4.59999990	-0.79601380	49.01575000	12.16166000
4.79999989	3.82258900	49.01575000	12.16166000
4.99999987	7.48646600	48.97269000	11.46653000
5.19999986	9.39837600	48.64050000	11.09129000
5.39999985	8.92039900	48.27140000	11.00517000
5.59999984	6.37180100	48.64050000	10.62992000
5.79999983	1.91129400	48.97269000	9.93479300
5.99999981	-2.86724900	49.01575000	9.93479300
6.19999980	-6.84916400	49.01575000	10.62992000
6.39999979	-9.23905000	49.01575000	11.00517000
6.59999978	-9.23905000	49.01575000	11.04823000
6.79999977	-6.84916400	49.01575000	11.09129000
6.99999975	-3.02657500	48.97269000	11.38041000
7.19999974	1.43331700	48.64050000	11.41732000
7.39999973	5.09719500	48.27140000	10.68528000
7.59999972	7.32714100	48.64050000	10.72219000
7.79999971	7.64579200	48.97269000	10.95595000
7.99999970	6.05315000	49.01575000	10.62992000
8.19999968	3.18590100	49.01575000	9.93479300
8.39999967	-0.15871060	49.01575000	9.93479300
8.59999966	-3.02657500	49.01575000	10.62992000
8.79999965	-4.77854300	49.01575000	11.00517000
8.99999964	-5.09719500	49.01575000	11.04823000
9.19999962	-4.14124000	49.01575000	11.04823000
9.39999961	-2.54859700	49.01575000	11.04823000
9.59999960	-0.47736220	49.01575000	11.04823000
9.79999959	1.27399100	49.01575000	11.04823000
9.99999958	2.22994600	49.01575000	11.04823000
10.19999956	2.54859700	49.01575000	11.04823000
10.39999955	2.22994600	49.01575000	11.04823000
10.59999954	1.43331700	49.01575000	11.04823000
10.79999953	0.47736220	49.01575000	11.04823000
10.99999952	-0.31803640	49.01575000	11.04823000
11.19999951	-0.79601380	48.97269000	11.04823000
11.39999949	-0.95533960	48.64050000	11.04823000
11.59999948	-0.95533960	48.27140000	11.04823000
11.79999947	-0.63668800	48.64050000	11.04823000
11.99999946	-0.31803640	48.97269000	11.04823000
12.19999945	-0.15871060	49.01575000	11.04823000
12.39999943	-0.15871060	49.01575000	11.04823000
12.59999942	0.00000000	49.01575000	11.04823000
12.79999941	0.00000000	49.01575000	11.04823000
12.99999940	0.00000000	49.01575000	11.04823000
13.19999939	0.15871060	49.01575000	11.04823000
13.39999937	0.00000000	49.01575000	11.04823000
13.59999936	0.00000000	49.01575000	11.04823000
13.79999935	0.00000000	49.01575000	11.04823000
13.99999934	0.00000000	49.01575000	11.04823000
14.19999933	-0.15871060	48.97269000	11.04823000
14.39999932	-0.15871060	48.64050000	11.04823000
14.59999930	-0.15871060	48.27140000	11.04823000
14.79999929	0.00000000	48.64050000	11.04823000
14.99999928	0.00000000	48.97269000	11.04823000
15.19999927	0.00000000	48.97269000	11.04823000
15.39999926	0.00000000	48.59744000	11.04823000
15.59999924	0.00000000	47.85310000	11.04823000
15.79999923	0.00000000	47.52707000	11.04823000
15.99999922	0.00000000	47.81004000	11.04823000
16.19999921	0.00000000	48.22219000	11.04823000
16.39999920	0.00000000	48.22834000	11.04823000
16.59999919	-0.15871060	48.64050000	11.04823000
16.79999917	0.00000000	48.97269000	11.04823000
16.99999916	0.00000000	49.05881000	11.04823000
17.19999915	0.00000000	49.43405000	11.04823000
17.39999914	0.00000000	50.17839000	11.04823000
17.59999913	0.00000000	50.55364000	11.04823000
17.79999911	0.00000000	50.55364000	11.09129000
17.99999910	0.00000000	50.12918000	11.42347000
18.19999909	0.00000000	48.97269000	11.79257000
18.39999908	0.00000000	47.43479000	11.42347000
18.59999907	0.00000000	45.85384000	11.09129000
18.79999905	0.00000000	44.31594000	11.04823000
18.99999904	0.00000000	43.20251000	11.04823000
19.19999903	0.00000000	43.24557000	11.04823000
19.39999902	0.00000000	44.78346000	11.04823000
19.59999901	0.00000000	47.52707000	11.04823000
19.79999900	0.00000000	51.06422000	11.04823000
19.99999898	0.00000000	55.29650000	11.04823000
20.19999897	0.00000000	59.06127000	11.04823000
20.39999896	0.00000000	60.59916000	11.04823000
20.59999895	0.00000000	59.39345000	11.04823000
20.79999894	0.00000000	55.48105000	11.04823000
20.99999892	0.00000000	48.88041000	11.04823000
21.19999891	0.00000000	41.15403000	11.04823000
21.39999890	0.00000000	33.80290000	11.04823000
21.59999889	0.00000000	28.49409000	11.04823000
21.79999888	0.00000000	27.38066000	11.04823000
21.99999886	0.00000000	31.23770000	11.04823000
22.19999885	0.00000000	39.09941000	11.04823000
22.39999884	0.00000000	50.36294000	11.04823000
22.59999883	0.00000000	63.43504000	11.00517000
22.79999882	0.00000000	74.14493000	10.62992000
22.99999881	0.00000000	79.58292000	9.93479300
23.19999879	0.00000000	78.33414000	9.98400600
23.39999878	0.00000000	70.09719000	11.04823000
23.59999877	0.00000000	55.39493000	12.16166000
23.79999876	0.00000000	37.29700000	12.58612000
23.99999875	0.00000000	20.68159000	12.62918000
24.19999873	0.00000000	9.14124000	12.58612000
24.39999872	0.00000000	5.74557000	12.16166000
24.59999871	0.00000000	12.39542000	11.00517000
24.79999870	0.00000000	27.84203000	9.47342500
24.99999869	0.00000000	49.15108000	7.89247000
25.19999867	0.00000000	71.44439000	6.36072800
25.39999866	0.00000000	89.25935000	5.24729300
25.59999865	0.00000000	98.06841000	5.24729300
25.79999864	0.00000000	96.09989000	6.44685000
25.99999863	0.00000000	82.52337000	8.82135800
26.19999862	0.00000000	60.59916000	12.67224000
26.39999860	0.00000000	35.85138000	16.90453000
26.59999859	0.00000000	13.79798000	20.39247000
26.79999858	0.00000000	-0.86122040	22.61934000
26.99999857	0.00000000	-4.67519700	22.20103000
27.19999856	0.00000000	3.78937000	18.71924000
27.39999854	0.00000000	22.30561000	13.28125000
27.59999853	0.00000000	46.22908000	6.26845500
27.79999852	0.00000000	70.18946000	-1.02116100
27.99999851	0.00000000	88.33661000	-6.78518600
28.19999850	0.00000000	96.94267000	-9.43036400
28.39999848	0.00000000	94.66042000	-7.81250000
28.59999847	0.00000000	82.70177000	-1.58710600
28.79999846	0.00000000	63.76107000	8.49532500
28.99999845	0.00000000	42.12598000	20.43553000
29.19999844	0.00000000	22.77313000	31.58834000
29.39999843	0.00000000	9.60875900	38.88410000
29.59999841	0.00000000	5.32726300	40.41584000
29.79999840	0.00000000	10.67913000	35.72219000
29.99999839	0.00000000	23.70817000	25.22145000
30.19999838	0.00000000	40.73573000	10.54380000
30.39999837	0.00000000	57.76944000	-5.25344500
30.59999835	0.00000000	71.77042000	-18.35630000
30.79999834	0.00000000	79.95817000	-25.65207000
30.99999833	0.00000000	81.53912000	-25.23376000
31.19999832	0.00000000	76.51328000	-16.77534000
31.39999831	0.00000000	65.71727000	-2.42372000
31.59999829	0.00000000	52.22071000	14.96063000
31.79999828	0.00000000	39.01329000	32.32653000
31.99999827	0.00000000	28.54330000	45.06028000
32.19999826	0.00000000	22.72392000	50.86737000
32.39999825	0.00000000	22.68085000	48.49901000
32.59999824	0.00000000	28.03272000	37.72145000
32.79999822	0.00000000	36.96481000	21.50590000
32.99999821	0.00000000	47.81004000	3.29109200
33.19999820	0.00000000	58.55684000	-13.66265000
33.39999819	0.00000000	65.90797000	-25.22761000
33.59999818	0.00000000	68.33170000	-28.76476000
33.79999816	0.00000000	66.46161000	-24.16338000
33.99999815	0.00000000	61.02362000	-12.54921000
34.19999814	0.00000000	53.29109000	3.66633800
34.39999813	0.00000000	44.82652000	21.03838000
34.59999812	0.00000000	37.85064000	35.72219000
34.79999810	0.00000000	34.02436000	44.64198000
34.99999809	0.00000000	33.94439000	46.17987000
35.19999808	0.00000000	37.79527000	40.04060000
35.39999807	0.00000000	43.52854000	27.68824000
35.59999806	0.00000000	50.12918000	12.30315000
35.79999805	0.00000000	55.85630000	-2.79281500
35.99999803	0.00000000	58.97515000	-13.94562000
36.19999802	0.00000000	58.97515000	-19.00221000
36.39999801	0.00000000	55.94857000	-16.68307000
36.59999800	0.00000000	50.97194000	-7.94783400
36.79999799	0.00000000	45.94611000	4.36146600
36.99999797	0.00000000	41.66461000	16.72613000
37.19999796	0.00000000	39.01329000	26.75935000
37.39999795	0.00000000	39.01329000	32.10507000
37.59999794	0.00000000	41.66461000	30.98548000
37.79999793	0.00000000	45.89690000	24.15723000
37.99999791	0.00000000	50.55364000	14.21014000
38.19999790	0.00000000	54.78592000	4.17691900
38.39999789	0.00000000	57.48031000	-3.49409400
38.59999788	0.00000000	57.85556000	-6.88361200
38.79999787	0.00000000	55.94857000	-4.23228400
38.99999786	0.00000000	52.13459000	3.38336600
39.19999784	0.00000000	47.85310000	12.91215000
39.39999783	0.00000000	43.94069000	21.73966000
39.59999782	0.00000000	40.45890000	26.71629000
39.79999781	0.00000000	38.59498000	26.75935000
39.99999780	0.00000000	38.92101000	22.10876000
40.19999778	0.00000000	41.24631000	13.65650000
40.39999777	0.00000000	44.74040000	3.70939900
40.59999776	0.00000000	48.97269000	-4.69365100
40.79999775	0.00000000	52.82972000	-8.92593500
40.99999774	0.00000000	55.24729000	-7.76328700
41.19999772	0.00000000	56.78519000	-1.63016700
41.39999771	0.00000000	57.10506000	7.94168200
41.59999770	0.00000000	55.20423000	17.92569000
41.79999769	0.00000000	52.13459000	25.63976000
41.99999768	0.00000000	48.64050000	29.49680000
42.19999767	0.00000000	45.15871000	28.34030000
42.39999765	0.00000000	42.78420000	22.61934000
42.59999764	0.00000000	41.20325000	14.16708000
42.79999763	0.00000000	40.45890000	5.33341500
42.99999762	0.00000000	41.24631000	-1.63016700
43.19999761	0.00000000	43.15945000	-5.11195900
43.39999759	0.00000000	45.85384000	-4.78592500
43.59999758	0.00000000	48.50517000	-0.93503930
43.79999757	0.00000000	50.12918000	5.20423200
43.99999756	0.00000000	50.97194000	12.11860000
44.19999755	0.00000000	51.75935000	17.88263000
44.39999753	0.00000000	52.13459000	21.03838000
44.59999752	0.00000000	52.13459000	21.46284000
44.79999751	0.00000000	51.80241000	19.54970000
44.99999750	0.00000000	51.39025000	15.74188000
45.19999749	0.00000000	51.34104000	11.51575000
45.39999748	0.00000000	50.50443000	7.98474400
45.59999746	0.00000000	48.97269000	5.29035400
45.79999745	0.00000000	46.92421000	4.12770700
45.99999744	0.00000000	43.85457000	4.87204700
46.19999743	0.00000000	40.41584000	6.72982200
46.39999742	0.00000000	38.12746000	9.05511800
46.59999740	0.00000000	37.38927000	11.04823000
46.79999739	0.00000000	39.01329000	13.00443000
46.99999738	0.00000000	43.24557000	14.85605000
47.19999737	0.00000000	49.05881000	15.23130000
47.39999736	0.00000000	55.24729000	14.16092000
47.59999734	0.00000000	60.64222000	12.58612000
47.79999733	0.00000000	63.71801000	10.62992000
47.99999732	0.00000000	63.66880000	8.31077700
48.19999731	0.00000000	60.13164000	6.40378900
48.39999730	0.00000000	53.16190000	5.24729300
48.59999729	0.00000000	44.31594000	5.29035400
48.79999727	0.00000000	35.85138000	6.82209600
48.99999726	0.00000000	30.07505000	9.51648500
49.19999725	0.00000000	28.53716000	12.58612000
49.39999724	0.00000000	31.61294000	15.27436000
49.59999723	0.00000000	38.63804000	16.89837000
49.79999721	0.00000000	48.22834000	17.60581000
49.99999720	0.00000000	58.22465000	17.18135000
50.19999719	0.00000000	65.16363000	14.45005000
50.39999718	0.00000000	67.90723000	10.62992000
50.59999717	0.00000000	65.95103000	6.35457700
50.79999715	0.00000000	59.44266000	2.59596400
50.99999714	0.00000000	50.59670000	1.05807100
51.19999713	0.00000000	41.66461000	2.17765700
51.39999712	0.00000000	34.44267000	5.24729300
51.59999711	0.00000000	31.29306000	9.47342500
51.79999710	0.00000000	33.14468000	13.74262000
51.99999708	0.00000000	37.75836000	17.23056000
52.19999707	0.00000000	44.78346000	19.50664000
52.39999706	0.00000000	52.78666000	19.50664000
52.59999705	0.00000000	58.92593000	17.23056000
52.79999704	0.00000000	61.66953000	13.74262000
52.99999702	0.00000000	60.50689000	9.51648500
53.19999701	0.00000000	55.89936000	5.70866100
53.39999700	0.00000000	49.01575000	3.75246000
53.59999699	0.00000000	42.13213000	3.66633800
53.79999698	0.00000000	37.52460000	4.82283400
53.99999696	0.00000000	36.31890000	6.77903500
54.19999695	0.00000000	38.59498000	9.47342500
54.39999694	0.00000000	43.15945000	12.11860000
54.59999693	0.00000000	48.59744000	13.69956000
54.79999692	0.00000000	53.58022000	14.07480000
54.99999691	0.00000000	57.01894000	13.32431000
55.19999689	0.00000000	57.39419000	11.42347000
55.39999688	0.00000000	54.78592000	9.55954600
55.59999687	0.00000000	50.55364000	8.40305000
55.79999686	0.00000000	45.94611000	8.44611200
55.99999685	0.00000000	42.08292000	9.93479300
56.19999683	0.00000000	40.12672000	12.21087000
56.39999682	0.00000000	40.12672000	14.07480000
56.59999681	0.00000000	42.08292000	14.81299000
56.79999680	0.00000000	45.89690000	13.65650000
56.99999679	0.00000000	50.08612000	11.00517000
57.19999677	0.00000000	53.20496000	7.89247000
57.39999676	0.00000000	54.74286000	4.82283400
57.59999675	0.00000000	54.36761000	2.54675200
57.79999674	0.00000000	52.08538000	2.22071800
57.99999673	0.00000000	49.05881000	4.17076700
58.19999672	0.00000000	46.32135000	8.44611200
58.39999670	0.00000000	44.36515000	14.16708000
58.59999669	0.00000000	43.20251000	19.50664000
58.79999668	0.00000000	43.24557000	22.57628000
58.99999667	0.00000000	44.74040000	22.57628000
59.19999666	0.00000000	47.01648000	19.50664000
59.39999664	0.00000000	48.92347000	14.07480000
59.59999663	0.00000000	50.08612000	7.51722400
59.79999662	0.00000000	50.08612000	0.97194880
59.99999661	0.00000000	49.01575000	-3.58021600
60.19999660	0.00000000	47.85310000	-4.74286400
60.39999658	0.00000000	47.05954000	-2.00541300
60.59999657	0.00000000	46.27214000	4.12770700
60.79999656	0.00000000	45.94611000	12.21087000
60.99999655	0.00000000	46.32135000	19.88189000
61.19999654	0.00000000	47.47785000	25.31373000
61.39999653	0.00000000	48.97269000	27.22072000
61.59999651	0.00000000	50.12918000	25.27067000
61.79999650	0.00000000	50.50443000	19.46358000
61.99999649	0.00000000	50.12918000	11.04823000
62.19999648	0.00000000	48.97269000	2.59596400
62.39999647	0.00000000	47.43479000	-3.58636800
62.59999645	0.00000000	45.85384000	-6.32381900
62.79999644	0.00000000	44.31594000	-5.16117100
62.99999643	0.00000000	43.24557000	-0.55979330
63.19999642	0.00000000	43.62082000	6.40378900
63.39999641	0.00000000	45.52165000	14.11786000
63.59999639	0.00000000	47.81004000	21.03838000
63.79999638	0.00000000	50.17839000	25.31373000
63.99999637	0.00000000	52.04232000	26.10728000
64.19999636	0.00000000	52.82972000	23.78199000
64.39999635	0.00000000	52.04232000	18.35015000
64.59999634	0.00000000	50.17839000	11.18356000
64.79999632	0.00000000	47.85310000	4.87819900
64.99999631	0.00000000	45.89690000	0.59055110
65.19999630	0.00000000	44.31594000	-2.50984200
65.39999629	0.00000000	43.20251000	-2.42372000
65.59999628	0.00000000	43.24557000	0.55364170
65.79999626	0.00000000	44.74040000	5.11195900
65.99999625	0.00000000	46.96727000	9.79330600
66.19999624	0.00000000	48.54823000	13.42274000
66.39999623	0.00000000	49.39099000	17.27362000
66.59999622	0.00000000	50.12918000	20.24483000
66.79999620	0.00000000	50.04306000	20.34941000
66.99999619	0.00000000	48.54823000	18.85458000
67.19999618	0.00000000	46.32135000	16.52928000
67.39999617	0.00000000	44.82652000	13.37967000
67.59999616	0.00000000	44.78346000	10.25467000
67.79999615	0.00000000	45.94611000	6.72982200
67.99999613	0.00000000	47.85310000	3.66633800
68.19999612	0.00000000	50.12918000	1.66707700
68.39999611	0.00000000	51.66707000	0.51058070
68.59999610	0.00000000	52.08538000	0.59670270
68.79999609	0.00000000	51.66707000	2.50369100
68.99999607	0.00000000	50.04306000	5.98548200
69.19999606	0.00000000	46.96727000	9.89173200
69.39999605	0.00000000	43.15945000	14.21014000
69.59999604	0.00000000	40.12672000	18.39321000
69.79999603	0.00000000	38.97022000	21.08760000
69.99999601	0.00000000	40.12672000	21.46284000
70.19999600	0.00000000	43.20251000	19.50664000
70.39999599	0.00000000	47.47785000	15.28051000
70.59999598	0.00000000	52.08538000	9.89173200
70.79999597	0.00000000	55.94857000	4.87204700
70.99999596	0.00000000	57.90477000	1.02116100
71.19999594	0.00000000	57.81250000	-0.55979330
71.39999593	0.00000000	55.14886000	0.17839570
71.59999592	0.00000000	50.14148000	2.54675200
71.79999591	0.00000000	45.10334000	6.82209600
71.99999590	0.00000000	40.04060000	12.11860000
72.19999588	0.00000000	36.26968000	16.35089000
72.39999587	0.00000000	35.47613000	18.35015000
72.59999586	0.00000000	37.34006000	18.43627000
72.79999585	0.00000000	41.24631000	17.23056000
72.99999584	0.00000000	46.27214000	14.94833000
73.19999582	0.00000000	51.71013000	11.84178000
73.39999581	0.00000000	56.27460000	9.18430000
73.59999580	0.00000000	58.59990000	7.24040300
73.79999579	0.00000000	57.90477000	6.86515700
73.99999578	0.00000000	55.20423000	7.93553100
74.19999577	0.00000000	51.34104000	9.42421200
74.39999575	0.00000000	46.69045000	10.58686000
74.59999574	0.00000000	42.87032000	10.95595000
74.79999573	0.00000000	40.45890000	10.58686000
74.99999572	0.00000000	39.70842000	9.42421200
75.19999571	0.00000000	40.45890000	7.93553100
75.39999569	0.00000000	42.78420000	6.82209600
75.59999568	0.00000000	45.85384000	6.82209600
75.79999567	0.00000000	48.92347000	8.02780400
75.99999566	0.00000000	51.24877000	10.35310000
76.19999565	0.00000000	52.04232000	13.79183000
76.39999563	0.00000000	51.71013000	16.81225000
76.59999562	0.00000000	50.55364000	18.39321000
76.79999561	0.00000000	49.05881000	18.35015000
76.99999560	0.00000000	47.90231000	16.35089000
77.19999559	0.00000000	47.47785000	12.11860000
77.39999558	0.00000000	47.43479000	6.77903500
77.59999556	0.00000000	47.43479000	2.12844500
77.79999555	0.00000000	47.39173000	-0.93503930
77.99999554	0.00000000	47.01648000	-1.71628900
78.19999553	0.00000000	46.22908000	0.22760820
78.39999552	0.00000000	45.47859000	4.08464600
78.59999550	0.00000000	44.69119000	9.51648500
78.79999549	0.00000000	44.31594000	15.23130000
78.99999548	0.00000000	44.36515000	19.54970000
79.19999547	0.00000000	45.15871000	21.88115000
79.39999546	0.00000000	47.10260000	22.20103000
79.59999544	0.00000000	49.34793000	19.42052000
79.79999543	0.00000000	51.29183000	13.83489000
79.99999542	0.00000000	52.08538000	8.03395600
80.19999541	0.00000000	52.08538000	4.07849400
80.39999540	0.00000000	51.24877000	0.83661410
80.59999539	0.00000000	48.92347000	-1.31028500
80.79999537	0.00000000	45.89690000	-1.29798200
80.99999536	0.00000000	43.20251000	1.75319900
81.19999535	0.00000000	41.66461000	6.26845500
81.39999534	0.00000000	41.62155000	10.58686000
81.59999533	0.00000000	42.78420000	14.16092000
81.79999531	0.00000000	44.74040000	17.27977000
81.99999530	0.00000000	47.43479000	19.55585000
82.19999529	0.00000000	50.08612000	19.93110000
82.39999528	0.00000000	51.66707000	18.43627000
82.59999527	0.00000000	52.08538000	15.74188000
82.79999525	0.00000000	51.66707000	12.58612000
82.99999524	0.00000000	50.12918000	9.09817800
83.19999523	0.00000000	47.90231000	5.61638700
83.39999522	0.00000000	46.32135000	3.24803100
83.59999521	0.00000000	45.47859000	1.66707700
83.79999520	0.00000000	44.74040000	0.97194880
83.99999518	0.00000000	44.74040000	2.17765700
84.19999517	0.00000000	45.47859000	5.24729300
84.39999516	0.00000000	46.22908000	9.47342500
84.59999515	0.00000000	47.01648000	13.74262000
84.79999514	0.00000000	47.39173000	17.27977000
84.99999512	0.00000000	47.43479000	19.97416000
85.19999511	0.00000000	47.43479000	21.08760000
85.39999510	0.00000000	47.47785000	19.88189000
85.59999509	0.00000000	47.85310000	16.39395000
85.79999508	0.00000000	48.59744000	11.04823000
85.99999506	0.00000000	48.97269000	5.70866100
86.19999505	0.00000000	49.01575000	2.12844500
86.39999504	0.00000000	48.97269000	0.17839570
86.59999503	0.00000000	48.54823000	-0.14148620
86.79999502	0.00000000	47.39173000	2.17765700
86.99999501	0.00000000	45.85384000	6.40378900
87.19999499	0.00000000	44.36515000	11.46653000
87.39999498	0.00000000	43.57775000	16.81225000
87.59999497	0.00000000	43.94069000	20.62008000
87.79999496	0.00000000	44.74040000	21.41363000
87.99999495	0.00000000	46.32135000	19.54970000
88.19999493	0.00000000	48.59744000	15.64960000
88.39999492	0.00000000	50.50443000	10.67298000
88.59999491	0.00000000	51.66707000	5.66560000
88.79999490	0.00000000	51.66707000	2.17765700
88.99999489	0.00000000	50.50443000	0.63976370
89.19999487	0.00000000	48.59744000	1.43946800
89.39999486	0.00000000	46.32135000	4.87204700
89.59999485	0.00000000	44.78346000	9.47342500
89.79999484	0.00000000	44.31594000	14.11786000
89.99999483	0.00000000	44.31594000	17.93184000
90.19999482	0.00000000	44.69119000	19.46358000
90.39999480	0.00000000	45.47859000	18.35015000
90.59999479	0.00000000	46.27214000	15.27436000
90.79999478	0.00000000	47.43479000	11.00517000
90.99999477	0.00000000	48.54823000	6.40378900
91.19999476	0.00000000	48.97269000	2.59596400
91.39999474	0.00000000	48.97269000	1.10728300
91.59999473	0.00000000	48.59744000	2.59596400
91.79999472	0.00000000	47.85310000	6.40378900
91.99999471	0.00000000	47.47785000	11.00517000
92.19999470	0.00000000	47.43479000	15.27436000
92.39999468	0.00000000	47.43479000	18.30093000
92.59999467	0.00000000	47.39173000	19.08834000
92.79999466	0.00000000	47.01648000	17.18750000
92.99999465	0.00000000	46.22908000	13.74262000
93.19999464	0.00000000	45.47859000	9.47342500
93.39999463	0.00000000	44.69119000	5.29035400
93.59999461	0.00000000	44.31594000	2.59596400
93.79999460	0.00000000	44.31594000	2.22071800
93.99999459	0.00000000	44.74040000	4.12770700
94.19999458	0.00000000	45.94611000	7.93553100
94.39999457	0.00000000	47.85310000	12.16166000
94.59999455	0.00000000	50.12918000	15.64960000
94.79999454	0.00000000	51.66707000	17.92569000
94.99999453	0.00000000	52.08538000	17.83957000
95.19999452	0.00000000	51.66707000	14.85605000
95.39999451	0.00000000	50.08612000	10.35310000
95.59999449	0.00000000	47.43479000	6.86515700
95.79999448	0.00000000	44.69119000	4.82283400
95.99999447	0.00000000	42.35974000	3.70939900
96.19999446	0.00000000	40.50196000	4.12770700
96.39999445	0.00000000	40.50196000	6.40378900
96.59999444	0.00000000	42.35974000	9.47342500
96.79999442	0.00000000	44.74040000	12.58612000
96.99999441	0.00000000	47.90231000	15.23130000
97.19999440	0.00000000	51.71013000	16.34473000
97.39999439	0.00000000	54.74286000	15.23130000
97.59999438	0.00000000	55.94857000	12.62918000
97.79999436	0.00000000	55.20423000	9.93479300
97.99999435	0.00000000	53.24803000	7.98474400
98.19999434	0.00000000	50.08612000	6.82209600
98.39999433	0.00000000	45.89690000	6.77903500
98.59999432	0.00000000	42.03986000	7.51722400
98.79999430	0.00000000	39.66535000	8.31077700
98.99999429	0.00000000	38.50270000	9.51648500
99.19999428	0.00000000	38.97022000	11.00517000
99.39999427	0.00000000	41.62155000	12.11860000
99.59999426	0.00000000	45.43553000	12.16166000
99.79999425	0.00000000	48.97269000	11.46653000
99.99999423	0.00000000	52.08538000	11.09129000
100.19999422	0.00000000	54.36761000	11.04823000
100.39999421	0.00000000	54.78592000	11.09129000
100.59999420	0.00000000	53.66634000	11.46653000
100.79999419	0.00000000	51.71013000	12.16166000
100.99999417	0.00000000	48.97269000	12.11860000
101.19999416	0.00000000	45.89690000	11.00517000
101.39999415	0.00000000	43.15945000	9.47342500
101.59999414	0.00000000	41.24631000	7.93553100
101.79999413	0.00000000	40.45890000	6.77903500
101.99999411	0.00000000	41.24631000	6.40378900
102.19999410	0.00000000	43.11023000	6.77903500
102.39999409	0.00000000	45.47859000	7.98474400
102.59999408	0.00000000	47.81004000	9.93479300
102.79999407	0.00000000	50.12918000	12.58612000
102.99999406	0.00000000	51.66707000	14.90526000
103.19999404	0.00000000	52.13459000	16.02485000
103.39999403	0.00000000	52.04232000	16.01870000
103.59999402	0.00000000	50.87352000	14.07480000
103.79999401	0.00000000	48.22834000	11.09744000
103.99999400	0.00000000	45.94611000	8.35383800
104.19999398	0.00000000	44.31594000	6.36072800
104.39999397	0.00000000	43.20251000	4.82283400
104.59999396	0.00000000	43.15945000	4.12770700
104.79999395	0.00000000	43.94069000	5.29035400
104.99999394	0.00000000	45.10950000	7.93553100
105.19999392	0.00000000	47.01648000	11.00517000
105.39999391	0.00000000	48.50517000	13.69956000
105.59999390	0.00000000	48.97269000	15.23130000
105.79999389	0.00000000	48.97269000	15.27436000
105.99999388	0.00000000	48.54823000	14.11786000
106.19999387	0.00000000	47.43479000	12.21087000
106.39999385	0.00000000	46.27214000	9.89173200
106.59999384	0.00000000	45.47859000	7.98474400
106.79999383	0.00000000	44.74040000	6.82209600
106.99999382	0.00000000	44.78346000	6.82209600
107.19999381	0.00000000	45.85384000	7.98474400
107.39999379	0.00000000	47.01648000	9.84867000
107.59999378	0.00000000	47.81004000	11.79257000
107.79999377	0.00000000	48.54823000	12.91215000
107.99999376	0.00000000	48.54823000	13.32431000
108.19999375	0.00000000	47.81004000	12.53691000
108.39999374	0.00000000	47.05954000	11.04823000
108.59999372	0.00000000	46.22908000	9.47342500
108.79999371	0.00000000	45.47859000	7.93553100
108.99999370	0.00000000	44.69119000	6.82209600
109.19999369	0.00000000	44.36515000	6.82209600
109.39999368	0.00000000	44.78346000	8.02780400
109.59999366	0.00000000	46.27214000	10.17470000
109.79999365	0.00000000	48.12992000	12.15551000
109.99999364	0.00000000	48.97269000	12.63533000
110.19999363	0.00000000	49.39099000	13.79183000
110.39999362	0.00000000	49.71087000	14.39468000
110.59999360	0.00000000	48.92347000	12.95522000
110.79999359	0.00000000	47.43479000	11.09744000
110.99999358	0.00000000	45.89690000	9.47342500
111.19999357	0.00000000	44.74040000	7.98474400
111.39999356	0.00000000	44.36515000	7.19734200
111.59999355	0.00000000	44.69119000	7.51722400
111.79999353	0.00000000	45.47859000	7.89247000
111.99999352	0.00000000	46.22908000	8.35998900
112.19999351	0.00000000	47.05954000	9.51648500
112.39999350	0.00000000	47.76698000	11.00517000
112.59999349	0.00000000	48.22219000	12.11860000
112.79999347	0.00000000	48.18528000	12.16166000
112.99999346	0.00000000	48.17913000	11.46653000
113.19999345	0.00000000	47.39173000	11.04823000
113.39999344	0.00000000	46.32135000	10.62992000
113.59999343	0.00000000	45.89690000	9.89173200
113.79999341	0.00000000	45.85384000	9.51648500
113.99999340	0.00000000	45.85384000	9.47342500
114.19999339	0.00000000	45.85384000	9.43036400
114.39999338	0.00000000	45.85384000	9.05511800
114.59999337	0.00000000	45.89690000	8.31077700
114.79999336	0.00000000	46.27214000	7.93553100
114.99999334	0.00000000	47.01648000	7.93553100
115.19999333	0.00000000	47.39173000	8.31077700
115.39999332	0.00000000	47.43479000	9.05511800
115.59999331	0.00000000	47.43479000	9.43036400
115.79999330	0.00000000	47.39173000	9.51648500
115.99999328	0.00000000	47.01648000	9.89173200
116.19999327	0.00000000	46.27214000	10.67298000
116.39999326	0.00000000	45.89690000	11.42347000
116.59999325	0.00000000	45.85384000	12.16166000
116.79999324	0.00000000	45.85384000	12.16166000
116.99999322	0.00000000	45.89690000	11.46653000
117.19999321	0.00000000	46.27214000	11.04823000
117.39999320	0.00000000	47.01648000	10.58686000
117.59999319	0.00000000	47.43479000	9.47342500
117.79999318	0.00000000	47.85310000	8.35998900
117.99999317	0.00000000	48.59744000	7.93553100
118.19999315	0.00000000	48.92347000	7.93553100
118.39999314	0.00000000	48.59744000	8.31077700
118.59999313	0.00000000	47.81004000	9.09817800
118.79999312	0.00000000	47.01648000	9.84867000
118.99999311	0.00000000	45.85384000	10.67298000
119.19999309	0.00000000	44.74040000	11.42347000
119.39999308	0.00000000	44.31594000	12.21087000
119.59999307	0.00000000	44.31594000	12.53691000
119.79999306	0.00000000	44.74040000	12.25394000
119.99999305	0.00000000	45.89690000	11.84178000
120.19999303	0.00000000	47.39173000	11.83563000
120.39999302	0.00000000	48.59744000	11.38041000
120.59999301	0.00000000	49.39099000	10.67298000
120.79999300	0.00000000	50.12918000	9.89173200
120.99999299	0.00000000	50.12918000	9.51648500
121.19999298	0.00000000	49.39099000	9.43036400
121.39999296	0.00000000	48.59744000	9.09817800
121.59999295	0.00000000	47.39173000	8.72908400
121.79999294	0.00000000	45.89690000	9.09817800
121.99999293	0.00000000	44.69119000	9.43036400
122.19999292	0.00000000	43.94069000	9.51648500
122.39999290	0.00000000	43.52854000	9.89173200
122.59999289	0.00000000	43.94069000	10.62992000
122.79999288	0.00000000	44.69119000	11.00517000
122.99999287	0.00000000	45.85384000	11.04823000
123.19999286	0.00000000	47.01648000	11.04823000
123.39999284	0.00000000	47.81004000	11.00517000
123.59999283	0.00000000	48.59744000	10.62992000
123.79999282	0.00000000	48.92347000	9.89173200
123.99999281	0.00000000	48.59744000	9.47342500
124.19999280	0.00000000	47.81004000	9.05511800
124.39999279	0.00000000	47.05954000	8.35998900
124.59999277	0.00000000	46.22908000	8.31077700
124.79999276	0.00000000	45.47859000	8.67987200
124.99999275	0.00000000	44.69119000	8.68602300
125.19999274	0.00000000	44.31594000	9.14124000
125.39999273	0.00000000	44.27288000	9.84867000
125.59999271	0.00000000	44.31594000	10.62992000
125.79999270	0.00000000	44.74040000	11.00517000
125.99999269	0.00000000	45.85384000	11.04823000
126.19999268	0.00000000	47.01648000	11.04823000
126.39999267	0.00000000	47.81004000	11.04823000
126.59999265	0.00000000	48.59744000	11.00517000
126.79999264	0.00000000	48.92347000	10.62992000
126.99999263	0.00000000	48.54823000	9.89173200
127.19999262	0.00000000	47.43479000	9.47342500
127.39999261	0.00000000	46.27214000	9.09817800
127.59999260	0.00000000	45.47859000	8.72908400
127.79999258	0.00000000	44.69119000	9.09817800
127.99999257	0.00000000	44.31594000	9.43036400
128.19999256	0.00000000	44.31594000	9.51648500
128.39999255	0.00000000	44.69119000	9.89173200
128.59999254	0.00000000	45.47859000	10.62992000
128.79999252	0.00000000	46.27214000	11.00517000
128.99999251	0.00000000	47.43479000	11.04823000
129.19999250	0.00000000	48.54823000	11.00517000
129.39999249	0.00000000	48.92347000	10.62992000
129.59999248	0.00000000	48.59744000	9.89173200
129.79999246	0.00000000	47.81004000	9.51648500
129.99999245	0.00000000	47.01648000	9.47342500
130.19999244	0.00000000	45.85384000	9.47342500
130.39999243	0.00000000	44.74040000	9.51648500
130.59999242	0.00000000	44.36515000	9.89173200
130.79999241	0.00000000	44.69119000	10.62992000
130.99999239	0.00000000	45.47859000	11.00517000
131.19999238	0.00000000	46.22908000	11.04823000
131.39999237	0.00000000	47.05954000	11.04823000
131.59999236	0.00000000	47.76698000	11.00517000
131.79999235	0.00000000	48.17913000	10.62992000
131.99999233	0.00000000	47.81004000	9.89173200
132.19999232	0.00000000	47.43479000	9.47342500
132.39999231	0.00000000	47.01648000	9.09817800
132.59999230	0.00000000	46.22908000	8.72908400
132.79999229	0.00000000	45.52165000	9.09817800
132.99999227	0.00000000	45.10950000	9.47342500
133.19999226	0.00000000	45.47859000	9.89173200
133.39999225	0.00000000	45.81078000	10.62992000
133.59999224	0.00000000	45.85384000	11.00517000
133.79999223	0.00000000	45.89690000	11.04823000
133.99999222	0.00000000	46.22908000	11.04823000
134.19999220	0.00000000	46.59818000	11.00517000
134.39999219	0.00000000	46.22908000	10.62992000
134.59999218	0.00000000	45.89690000	9.84867000
134.79999217	0.00000000	45.85384000	9.09817800
134.99999216	0.00000000	45.89690000	8.31077700
135.19999214	0.00000000	46.27214000	7.93553100
135.39999213	0.00000000	47.01648000	7.93553100
135.59999212	0.00000000	47.34252000	8.31077700
135.79999211	0.00000000	47.05954000	9.09817800
135.99999210	0.00000000	46.64739000	9.84867000
136.19999208	0.00000000	46.64124000	10.62992000
136.39999207	0.00000000	46.18602000	11.00517000
136.59999206	0.00000000	45.47859000	11.04823000
136.79999205	0.00000000	44.74040000	11.04823000
136.99999204	0.00000000	44.74040000	11.00517000
137.19999203	0.00000000	45.43553000	10.62992000
137.39999201	0.00000000	45.85384000	9.89173200
137.59999200	0.00000000	46.27214000	9.47342500
137.79999199	0.00000000	47.01648000	9.05511800
137.99999198	0.00000000	47.39173000	8.31077700
138.19999197	0.00000000	47.43479000	7.93553100
138.39999195	0.00000000	47.39173000	7.89247000
138.59999194	0.00000000	47.01648000	7.93553100
138.79999193	0.00000000	46.27214000	8.35998900
138.99999192	0.00000000	45.85384000	9.47342500
139.19999191	0.00000000	45.43553000	10.58686000
139.39999189	0.00000000	44.74040000	11.00517000
139.59999188	0.00000000	44.74040000	11.04823000
139.79999187	0.00000000	45.43553000	11.04823000
139.99999186	0.00000000	45.85384000	11.04823000
140.19999185	0.00000000	46.27214000	11.00517000
140.39999184	0.00000000	47.01648000	10.62992000
140.59999182	0.00000000	47.39173000	9.84867000
140.79999181	0.00000000	47.39173000	9.09817800
140.99999180	0.00000000	47.01648000	8.31077700
141.19999179	0.00000000	46.27214000	7.98474400
141.39999178	0.00000000	45.89690000	8.31077700
141.59999176	0.00000000	45.85384000	9.09817800
141.79999175	0.00000000	45.85384000	9.84867000
141.99999174	0.00000000	45.85384000	10.67298000
142.19999173	0.00000000	45.89690000	11.42347000
142.39999172	0.00000000	46.27214000	12.21087000
142.59999170	0.00000000	47.01648000	12.53691000
142.79999169	0.00000000	47.39173000	12.16166000
142.99999168	0.00000000	47.43479000	11.04823000
143.19999167	0.00000000	47.39173000	9.89173200
143.39999166	0.00000000	47.01648000	9.09817800
143.59999165	0.00000000	46.27214000	8.31077700
143.79999163	0.00000000	45.85384000	7.93553100
143.99999162	0.00000000	45.47859000	7.93553100
144.19999161	0.00000000	45.15871000	8.31077700
144.39999160	0.00000000	45.89690000	9.09817800
144.59999159	0.00000000	46.92421000	9.84867000
144.79999157	0.00000000	47.01648000	10.62992000
144.99999156	0.00000000	46.64739000	11.00517000
145.19999155	0.00000000	46.64124000	11.04823000
145.39999154	0.00000000	46.22908000	11.04823000
145.59999153	0.00000000	45.89690000	11.00517000
145.79999151	0.00000000	45.85384000	10.62992000
145.99999150	0.00000000	45.85384000	9.84867000
146.19999149	0.00000000	45.85384000	9.09817800
146.39999148	0.00000000	45.85384000	8.31077700
146.59999147	0.00000000	45.85384000	7.98474400
146.79999146	0.00000000	45.89690000	8.31077700
146.99999144	0.00000000	46.27214000	9.05511800
147.19999143	0.00000000	47.01648000	9.43036400
147.39999142	0.00000000	47.39173000	9.51648500
147.59999141	0.00000000	47.39173000	9.89173200
147.79999140	0.00000000	47.01648000	10.62992000
147.99999138	0.00000000	46.27214000	10.95595000
148.19999137	0.00000000	45.89690000	10.67298000
148.39999136	0.00000000	45.85384000	10.26698000
148.59999135	0.00000000	45.85384000	10.25467000
148.79999134	0.00000000	45.85384000	9.84867000
148.99999132	0.00000000	45.85384000	9.51648500
149.19999131	0.00000000	45.85384000	9.43036400
149.39999130	0.00000000	45.85384000	9.09817800
149.59999129	0.00000000	45.89690000	8.72908400
149.79999128	0.00000000	46.27214000	9.09817800
149.99999127	0.00000000	47.01648000	9.43036400
150.19999125	0.00000000	47.34252000	9.51648500
150.39999124	0.00000000	47.01648000	9.89173200
150.59999123	0.00000000	46.27214000	10.62992000
150.79999122	0.00000000	45.89690000	11.00517000
150.99999121	0.00000000	45.81078000	11.00517000
151.19999119	0.00000000	45.47859000	10.62992000
151.39999118	0.00000000	45.10950000	9.89173200
151.59999117	0.00000000	45.47859000	9.51648500
151.79999116	0.00000000	45.81078000	9.47342500
151.99999115	0.00000000	45.85384000	9.47342500
152.19999113	0.00000000	45.89690000	9.51648500
152.39999112	0.00000000	46.27214000	9.84867000
152.59999111	0.00000000	46.96727000	10.21161000
152.79999110	0.00000000	47.01648000	9.84867000
152.99999109	0.00000000	46.69045000	9.51648500
153.19999108	0.00000000	47.01648000	9.47342500
153.39999106	0.00000000	47.01648000	9.51648500
153.59999105	0.00000000	46.64739000	9.89173200
153.79999104	0.00000000	46.64124000	10.62992000
153.99999103	0.00000000	46.22908000	10.95595000
154.19999102	0.00000000	45.85384000	10.62992000
154.39999100	0.00000000	45.43553000	9.93479300
154.59999099	0.00000000	44.74040000	9.89173200
154.79999098	0.00000000	44.74040000	10.21161000
154.99999097	0.00000000	45.43553000	9.84867000
155.19999096	0.00000000	45.81078000	9.51648500
155.39999094	0.00000000	45.89690000	9.47342500
155.59999093	0.00000000	46.27214000	9.47342500
155.79999092	0.00000000	47.01648000	9.47342500
155.99999091	0.00000000	47.39173000	9.47342500
156.19999090	0.00000000	47.39173000	9.47342500
156.39999089	0.00000000	47.01648000	9.51648500
156.59999087	0.00000000	46.27214000	9.89173200
156.79999086	0.00000000	45.85384000	10.58686000
156.99999085	0.00000000	45.43553000	10.62992000
157.19999084	0.00000000	44.69119000	10.31004000
157.39999083	0.00000000	44.36515000	10.67298000
157.59999081	0.00000000	44.69119000	11.00517000
157.79999080	0.00000000	45.43553000	11.00517000
157.99999079	0.00000000	45.81078000	10.62992000
158.19999078	0.00000000	45.85384000	9.89173200
158.39999077	0.00000000	45.85384000	9.51648500
158.59999075	0.00000000	45.89690000	9.47342500
158.79999074	0.00000000	46.27214000	9.47342500
158.99999073	0.00000000	47.01648000	9.47342500
159.19999072	0.00000000	47.34252000	9.47342500
159.39999071	0.00000000	47.01648000	9.51648500
159.59999070	0.00000000	46.27214000	9.93479300
159.79999068	0.00000000	45.89690000	11.00517000
159.99999067	0.00000000	45.85384000	11.74336000
160.19999066	0.00000000	45.85384000	11.42347000
160.39999065	0.00000000	45.85384000	11.04823000
160.59999064	0.00000000	45.85384000	10.62992000
160.79999062	0.00000000	45.85384000	9.89173200
160.99999061	0.00000000	45.85384000	9.47342500
161.19999060	0.00000000	45.85384000	9.05511800
161.39999059	0.00000000	45.89690000	8.35998900
161.59999058	0.00000000	46.22908000	8.31077700
161.79999056	0.00000000	46.59818000	8.67987200
161.99999055	0.00000000	46.22908000	8.68602300
162.19999054	0.00000000	45.89690000	9.09817800
162.39999053	0.00000000	45.85384000	9.43036400
162.59999052	0.00000000	45.85384000	9.47342500
162.79999051	0.00000000	45.85384000	9.51648500
162.99999049	0.00000000	45.85384000	9.84867000
163.19999048	0.00000000	45.81078000	10.21161000
163.39999047	0.00000000	45.43553000	9.84867000
163.59999046	0.00000000	44.69119000	9.51648500
163.79999045	0.00000000	44.31594000	9.47342500
163.99999043	0.00000000	44.31594000	9.47342500
164.19999042	0.00000000	44.69119000	9.47342500
164.39999041	0.00000000	45.43553000	9.47342500
164.59999040	0.00000000	45.81078000	9.47342500
164.79999039	0.00000000	45.89690000	9.47342500
164.99999037	0.00000000	46.27214000	9.47342500
165.19999036	0.00000000	47.01648000	9.47342500
165.39999035	0.00000000	47.34252000	9.47342500
165.59999034	0.00000000	47.01648000	9.47342500
165.79999033	0.00000000	46.27214000	9.51648500
165.99999032	0.00000000	45.89690000	9.89173200
166.19999030	0.00000000	45.85384000	10.62992000
166.39999029	0.00000000	45.85384000	10.95595000
166.59999028	0.00000000	45.85384000	10.62992000
166.79999027	0.00000000	45.85384000	9.89173200
166.99999026	0.00000000	45.85384000	9.51648500
167.19999024	0.00000000	45.85384000	9.51648500
167.39999023	0.00000000	45.85384000	9.84867000
167.59999022	0.00000000	45.85384000	10.21161000
167.79999021	0.00000000	45.89690000	9.84867000
167.99999020	0.00000000	46.22908000	9.51648500
168.19999018	0.00000000	46.59818000	9.47342500
168.39999017	0.00000000	46.22908000	9.47342500
168.59999016	0.00000000	45.89690000	9.47342500
168.79999015	0.00000000	45.85384000	9.47342500
168.99999014	0.00000000	45.85384000	9.47342500
169.19999013	0.00000000	45.85384000	9.47342500
169.39999011	0.00000000	45.85384000	9.47342500
169.59999010	0.00000000	45.85384000	9.47342500
169.79999009	0.00000000	45.81078000	9.47342500
169.99999008	0.00000000	45.47859000	9.47342500
170.19999007	0.00000000	45.10950000	9.47342500
170.39999005	0.00000000	45.47859000	9.47342500
170.59999004	0.00000000	45.81078000	9.47342500
170.79999003	0.00000000	45.85384000	9.47342500
170.99999002	0.00000000	45.85384000	9.47342500
171.19999001	0.00000000	45.85384000	9.47342500
171.39998999	0.00000000	45.85384000	9.47342500
171.59998998	0.00000000	45.85384000	9.47342500
171.79998997	0.00000000	45.85384000	9.47342500
171.99998996	0.00000000	45.85384000	9.47342500
172.19998995	0.00000000	45.85384000	9.47342500
172.39998994	0.00000000	45.85384000	9.47342500
172.59998992	0.00000000	45.85384000	9.47342500
172.79998991	0.00000000	45.85384000	9.47342500
172.99998990	0.00000000	45.85384000	9.47342500
173.19998989	0.00000000	45.85384000	9.47342500
173.39998988	0.00000000	45.85384000	9.47342500
173.59998986	0.00000000	45.85384000	9.47342500
173.79998985	0.00000000	45.85384000	9.43036400
173.99998984	0.00000000	45.85384000	9.09817800
174.19998983	0.00000000	45.85384000	8.72908400
174.39998982	0.00000000	45.85384000	9.09817800
174.59998980	0.00000000	45.85384000	9.43036400
174.79998979	0.00000000	45.85384000	9.43036400
174.99998978	0.00000000	45.85384000	9.09817800
175.19998977	0.00000000	45.85384000	8.72908400
175.39998976	0.00000000	45.81078000	9.09817800
175.59998975	0.00000000	45.47859000	9.43036400
175.79998973	0.00000000	45.10950000	9.47342500
175.99998972	0.00000000	45.47859000	9.47342500
176.19998971	0.00000000	45.76156000	9.47342500
176.39998970	0.00000000	45.47859000	9.47342500
176.59998969	0.00000000	45.10950000	9.47342500
176.79998967	0.00000000	45.47859000	9.47342500
176.99998966	0.00000000	45.81078000	9.47342500
177.19998965	0.00000000	45.85384000	9.47342500
177.39998964	0.00000000	45.81078000	9.47342500
177.59998963	0.00000000	45.47859000	9.47342500
177.79998961	0.00000000	45.10950000	9.51648500
177.99998960	0.00000000	45.47859000	9.84867000
178.19998959	0.00000000	45.81078000	10.21161000
178.39998958	0.00000000	45.85384000	9.84867000
178.59998957	0.00000000	45.85384000	9.51648500
178.79998956	0.00000000	45.85384000	9.47342500
178.99998954	0.00000000	45.85384000	9.51648500
179.19998953	0.00000000	45.85384000	9.84867000
179.39998952	0.00000000	45.85384000	10.21161000
179.59998951	0.00000000	45.85384000	9.84867000
179.79998950	0.00000000	45.85384000	9.51648500
179.99998948	0.00000000	45.85384000	9.47342500
180.19998947	0.00000000	45.85384000	9.47342500
180.39998946	0.00000000	45.85384000	9.47342500
180.59998945	0.00000000	45.85384000	9.47342500
180.79998944	0.00000000	45.85384000	9.47342500
180.99998942	0.00000000	45.85384000	9.47342500
181.19998941	0.00000000	45.85384000	9.47342500
181.39998940	0.00000000	45.85384000	9.47342500
181.59998939	0.00000000	45.85384000	9.47342500
181.79998938	0.00000000	45.85384000	9.51648500
181.99998937	0.00000000	45.85384000	9.84867000
182.19998935	0.00000000	45.85384000	10.21161000
182.39998934	0.00000000	45.85384000	9.84867000
182.59998933	0.00000000	45.85384000	9.51648500
182.79998932	0.00000000	45.85384000	9.47342500
182.99998931	0.00000000	45.85384000	9.47342500
183.19998929	0.00000000	45.85384000	9.47342500
183.39998928	0.00000000	45.85384000	9.47342500
183.59998927	0.00000000	45.85384000	9.47342500
183.79998926	0.00000000	45.85384000	9.47342500
183.99998925	0.00000000	45.85384000	9.47342500
184.19998923	0.00000000	45.85384000	9.47342500
184.39998922	0.00000000	45.85384000	9.47342500
184.59998921	0.00000000	45.85384000	9.47342500
184.79998920	0.00000000	45.81078000	9.47342500
184.99998919	0.00000000	45.47859000	9.51648500
185.19998918	0.00000000	45.10950000	9.84867000
185.39998916	0.00000000	45.47859000	10.21161000
185.59998915	0.00000000	45.81078000	9.84867000
185.79998914	0.00000000	45.85384000	9.51648500
185.99998913	0.00000000	45.85384000	9.47342500
186.19998912	0.00000000	45.85384000	9.43036400
186.39998910	0.00000000	45.85384000	9.05511800
186.59998909	0.00000000	45.85384000	8.35998900
186.79998908	0.00000000	45.85384000	8.35998900
186.99998907	0.00000000	45.85384000	9.05511800
187.19998906	0.00000000	45.81078000	9.43036400
187.39998904	0.00000000	45.47859000	9.47342500
187.59998903	0.00000000	45.06644000	9.51648500
187.79998902	0.00000000	45.06028000	9.89173200
187.99998901	0.00000000	44.69119000	10.58686000
188.19998900	0.00000000	44.74040000	10.58686000
188.39998899	0.00000000	45.43553000	9.89173200
188.59998897	0.00000000	45.81078000	9.51648500
188.79998896	0.00000000	45.85384000	9.47342500
188.99998895	0.00000000	45.85384000	9.43036400
189.19998894	0.00000000	45.85384000	9.09817800
189.39998893	0.00000000	45.85384000	8.72908400
189.59998891	0.00000000	45.85384000	9.09817800
189.79998890	0.00000000	45.85384000	9.43036400
189.99998889	0.00000000	45.85384000	9.47342500
190.19998888	0.00000000	45.81078000	9.47342500
190.39998887	0.00000000	45.43553000	9.47342500
190.59998885	0.00000000	44.69119000	9.47342500
190.79998884	0.00000000	44.36515000	9.51648500
190.99998883	0.00000000	44.69119000	9.84867000
191.19998882	0.00000000	45.38631000	10.25467000
191.39998881	0.00000000	45.43553000	10.21776000
191.59998880	0.00000000	45.10950000	10.25467000
191.79998878	0.00000000	45.47859000	9.84867000
191.99998877	0.00000000	45.81078000	9.51648500
192.19998876	0.00000000	45.85384000	9.47342500
192.39998875	0.00000000	45.85384000	9.47342500
192.59998874	0.00000000	45.85384000	9.47342500
192.79998872	0.00000000	45.81078000	9.47342500
192.99998871	0.00000000	45.43553000	9.43036400
193.19998870	0.00000000	44.69119000	9.09817800
193.39998869	0.00000000	44.31594000	8.72908400
193.59998868	0.00000000	44.27288000	9.09817800
193.79998866	0.00000000	44.31594000	9.43036400
193.99998865	0.00000000	44.69119000	9.47342500
194.19998864	0.00000000	45.43553000	9.47342500
194.39998863	0.00000000	45.81078000	9.47342500
194.59998862	0.00000000	45.85384000	9.47342500
194.79998861	0.00000000	45.85384000	9.47342500
194.99998859	0.00000000	45.85384000	9.47342500
195.19998858	0.00000000	45.85384000	9.47342500
195.39998857	0.00000000	45.81078000	9.47342500
195.59998856	0.00000000	45.47859000	9.47342500
195.79998855	0.00000000	45.10950000	9.47342500
195.99998853	0.00000000	45.43553000	9.47342500
