Time	Channel A	Channel B	Channel C
(us)	(V)	(mV)	(mV)

-4.49999956	0.00000000	101.98700000	36.31274000
-4.29999957	0.00000000	101.61790000	36.26968000
-4.09999958	0.00000000	101.61790000	35.93750000
-3.89999959	0.00000000	101.94390000	35.57455000
-3.69999960	0.00000000	101.57480000	35.93750000
-3.49999962	0.00000000	101.24260000	36.26968000
-3.29999963	0.00000000	101.19960000	36.31274000
-3.09999964	0.00000000	101.19960000	36.31274000
-2.89999965	0.00000000	101.24260000	36.31274000
-2.69999966	0.00000000	101.57480000	36.31274000
-2.49999968	0.00000000	101.98700000	36.31274000
-2.29999969	0.00000000	101.95000000	36.31274000
-2.09999970	0.00000000	102.03000000	36.31274000
-1.89999971	0.00000000	101.95000000	36.31274000
-1.69999972	0.00000000	102.03000000	36.31274000
-1.49999973	0.00000000	101.95000000	36.26968000
-1.29999975	0.00000000	101.98700000	35.93750000
-1.09999976	0.00000000	101.57480000	35.57455000
-0.89999977	0.00000000	101.24260000	35.93750000
-0.69999978	0.00000000	101.19960000	36.22047000
-0.49999979	0.00000000	101.19960000	35.93750000
-0.29999981	0.31803640	101.19960000	35.57455000
-0.09999982	0.63668800	101.19960000	35.93750000
0.10000017	0.95533960	101.19960000	36.26968000
0.30000016	1.11466500	101.19960000	36.26968000
0.50000015	0.79601380	101.19960000	35.93750000
0.70000013	0.31803640	101.19960000	35.57455000
0.90000012	-0.47736220	101.19960000	35.93750000
1.10000011	-1.59264300	101.24260000	36.26968000
1.30000010	-2.38927200	101.57480000	36.31274000
1.50000009	-2.86724900	101.94390000	36.31274000
1.70000008	-2.38927200	101.61790000	36.31274000
1.90000006	-1.27399100	101.66710000	36.31274000
2.10000005	0.63668800	102.31300000	36.31274000
2.30000004	2.70792300	102.36220000	36.31274000
2.50000003	4.45989200	101.99310000	36.31274000
2.70000002	5.41584600	101.98700000	36.26968000
2.90000000	4.77854300	101.61790000	35.93750000
3.09999999	2.86724900	101.66710000	35.57455000
3.29999998	-0.15871060	102.31300000	35.93750000
3.49999997	-3.66326300	102.36220000	36.26968000
3.69999996	-6.53112700	102.03620000	36.31274000
3.89999994	-7.96444400	102.44830000	36.31274000
4.09999993	-7.32714100	103.06350000	36.35580000
4.29999992	-4.93786900	103.14960000	36.73105000
4.49999991	-0.95533960	102.41140000	37.47539000
4.69999990	3.50393700	102.44830000	37.80142000
4.89999989	7.32714100	102.68820000	37.47539000
5.09999987	9.23905000	102.36220000	36.73105000
5.29999986	9.07972400	101.61790000	36.35580000
5.49999985	6.53112700	101.24260000	36.31274000
5.69999984	2.22994600	101.19960000	36.31274000
5.89999983	-2.54859700	101.24260000	36.31274000
6.09999981	-6.69045300	101.61790000	36.31274000
6.29999980	-9.07972400	102.36220000	36.31274000
6.49999979	-9.23905000	102.73740000	36.31274000
6.69999978	-7.00848900	102.78050000	36.31274000
6.89999977	-3.18590100	102.73740000	36.31274000
7.09999975	1.11466500	102.40530000	36.31274000
7.29999974	4.93786900	101.99310000	36.31274000
7.49999973	7.32714100	102.03000000	36.31274000
7.69999972	7.64579200	101.95000000	36.31274000
7.89999971	6.21247500	101.98700000	36.26968000
8.09999970	3.34522600	101.57480000	35.93750000
8.29999968	0.00000000	101.29180000	35.57455000
8.49999967	-2.86724900	101.57480000	35.93750000
8.69999966	-4.77854300	101.98700000	36.26968000
8.89999965	-5.09719500	101.95000000	36.31274000
9.09999964	-4.30056600	102.03000000	36.31274000
9.29999962	-2.70792300	101.95000000	36.31274000
9.49999961	-0.63668800	101.98700000	36.31274000
9.69999960	1.11466500	101.57480000	36.31274000
9.89999959	2.22994600	101.24260000	36.31274000
10.09999958	2.54859700	101.19960000	36.26968000
10.29999956	2.22994600	101.19960000	35.93750000
10.49999955	1.43331700	101.19960000	35.57455000
10.69999954	0.47736220	101.19960000	35.89444000
10.89999953	-0.31803640	101.19960000	35.85138000
11.09999952	-0.79601380	101.19960000	35.19931000
11.29999951	-0.95533960	101.19960000	35.15625000
11.49999949	-0.95533960	101.19960000	35.51919000
11.69999948	-0.63668800	101.19960000	35.53149000
11.89999947	-0.47736220	101.19960000	35.93750000
12.09999946	-0.15871060	101.19960000	36.26968000
12.29999945	-0.15871060	101.19960000	36.31274000
12.49999943	0.00000000	101.19960000	36.31274000
12.69999942	0.00000000	101.19960000	36.31274000
12.89999941	0.00000000	101.19960000	36.31274000
13.09999940	0.00000000	101.19960000	36.26968000
13.29999939	0.00000000	101.19960000	35.93750000
13.49999937	0.00000000	101.19960000	35.57455000
13.69999936	0.00000000	101.19960000	35.93750000
13.89999935	0.00000000	101.19960000	36.26968000
14.09999934	-0.15871060	101.19960000	36.31274000
14.29999933	-0.15871060	101.19960000	36.31274000
14.49999932	-0.15871060	101.19960000	36.31274000
14.69999930	0.00000000	101.19960000	36.31274000
14.89999929	0.00000000	101.19960000	36.31274000
15.09999928	0.00000000	101.19960000	36.31274000
15.29999927	0.00000000	101.19960000	36.31274000
15.49999926	0.00000000	101.19960000	36.31274000
15.69999924	0.00000000	101.19960000	36.31274000
15.89999923	0.00000000	101.19960000	36.31274000
16.09999922	0.00000000	101.19960000	36.31274000
16.29999921	0.00000000	101.19960000	36.31274000
16.49999920	-0.15871060	101.24260000	36.31274000
16.69999919	-0.15871060	101.61790000	36.31274000
16.89999917	0.00000000	102.36220000	36.31274000
17.09999916	0.00000000	102.78050000	36.31274000
17.29999915	0.00000000	103.19880000	36.31274000
17.49999914	0.00000000	103.89390000	36.31274000
17.69999913	0.00000000	103.89390000	36.31274000
17.89999911	0.00000000	103.15570000	36.31274000
18.09999910	0.00000000	102.36220000	36.31274000
18.29999909	0.00000000	101.15030000	36.31274000
18.49999908	0.00000000	99.61245000	36.31274000
18.69999907	0.00000000	98.12376000	36.31274000
18.89999905	0.00000000	97.28715000	36.31274000
19.09999904	0.00000000	97.37327000	36.31274000
19.29999903	0.00000000	98.17298000	36.31274000
19.49999902	0.00000000	100.95960000	36.31274000
19.69999901	0.00000000	104.73670000	36.31274000
19.89999900	0.00000000	108.63680000	36.31274000
20.09999898	0.00000000	111.71260000	36.31274000
20.29999897	0.00000000	113.25050000	36.31274000
20.49999896	0.00000000	112.78300000	36.31274000
20.69999895	0.00000000	109.57800000	36.31274000
20.89999894	0.00000000	103.38340000	36.31274000
21.09999892	0.00000000	95.33710000	36.31274000
21.29999891	0.00000000	87.98597000	36.31274000
21.49999890	0.00000000	82.95399000	36.31274000
21.69999889	0.00000000	81.09621000	36.26968000
21.89999888	0.00000000	83.93208000	35.93750000
22.09999886	0.00000000	91.70152000	35.57455000
22.29999885	0.00000000	103.29110000	35.93750000
22.49999884	0.00000000	116.03710000	36.26968000
22.69999883	0.00000000	126.83320000	36.31274000
22.89999882	0.00000000	133.30460000	36.31274000
23.09999881	0.00000000	132.79400000	36.31274000
23.29999879	0.00000000	124.28030000	36.35580000
23.49999878	0.00000000	109.57180000	36.73105000
23.69999877	0.00000000	91.79995000	37.47539000
23.89999876	0.00000000	74.81544000	37.85064000
24.09999875	0.00000000	62.89985000	37.85064000
24.29999873	0.00000000	59.08587000	37.42618000
24.49999872	0.00000000	64.94833000	36.26968000
24.69999871	0.00000000	79.69365000	34.73794000
24.89999870	0.00000000	100.59050000	33.15699000
25.09999869	0.00000000	123.29600000	31.62524000
25.29999867	0.00000000	141.76920000	30.51181000
25.49999866	0.00000000	151.07650000	30.51181000
25.69999865	0.00000000	149.49560000	31.71137000
25.89999864	0.00000000	137.06940000	34.04282000
26.09999863	0.00000000	115.80950000	37.56767000
26.29999862	0.00000000	90.77263000	41.38164000
26.49999860	0.00000000	67.97490000	44.86343000
26.69999859	0.00000000	52.89739000	46.77042000
26.89999858	0.00000000	48.62204000	46.72736000
27.09999857	0.00000000	56.01624000	44.30979000
27.29999856	0.00000000	73.79429000	38.87795000
27.49999854	0.00000000	97.98843000	31.53297000
27.69999853	0.00000000	121.99190000	23.81890000
27.89999852	0.00000000	140.23740000	17.35974000
28.09999851	0.00000000	150.28300000	14.70842000
28.29999850	0.00000000	149.12030000	16.98450000
28.49999848	0.00000000	137.21090000	23.20989000
28.69999847	0.00000000	118.31320000	32.59719000
28.89999846	0.00000000	96.26599000	44.21136000
29.09999845	0.00000000	76.58096000	55.69020000
29.29999844	0.00000000	63.32431000	63.73031000
29.49999843	0.00000000	58.66757000	65.63730000
29.69999841	0.00000000	63.23203000	60.98671000
29.89999840	0.00000000	75.55979000	50.48597000
30.09999839	0.00000000	92.17519000	35.80217000
30.29999838	0.00000000	109.62110000	20.01107000
30.49999837	0.00000000	124.32330000	6.90821800
30.69999835	0.00000000	133.25540000	-0.43061020
30.89999834	0.00000000	134.88560000	-0.38754920
31.09999833	0.00000000	129.53370000	7.36958600
31.29999832	0.00000000	119.10680000	21.67815000
31.49999831	0.00000000	105.94240000	39.43159000
31.69999829	0.00000000	92.77190000	56.80363000
31.89999828	0.00000000	82.30192000	69.95570000
32.09999827	0.00000000	76.44561000	76.13804000
32.29999826	0.00000000	76.02731000	74.18184000
32.49999825	0.00000000	80.67790000	64.14861000
32.69999824	0.00000000	89.56693000	48.30832000
32.89999822	0.00000000	100.73200000	30.13656000
33.09999821	0.00000000	111.15900000	13.13361000
33.29999820	0.00000000	118.55310000	1.19340500
33.49999819	0.00000000	121.71510000	-3.12500000
33.69999818	0.00000000	120.55240000	0.73203740
33.89999816	0.00000000	115.52660000	11.55266000
34.09999815	0.00000000	107.43110000	27.39296000
34.29999814	0.00000000	98.58513000	44.77116000
34.49999813	0.00000000	91.28321000	59.83021000
34.69999812	0.00000000	87.37696000	69.48818000
34.89999810	0.00000000	87.69685000	71.44439000
35.09999809	0.00000000	91.14788000	65.72342000
35.29999808	0.00000000	96.91805000	54.10925000
35.49999807	0.00000000	103.47560000	39.09941000
35.69999806	0.00000000	108.87670000	24.04650000
35.89999805	0.00000000	112.36470000	12.84449000
36.09999803	0.00000000	112.69070000	7.41264700
36.29999802	0.00000000	109.71330000	8.94438800
36.49999801	0.00000000	104.68750000	16.98450000
36.69999800	0.00000000	99.32948000	28.88164000
36.89999799	0.00000000	94.68504000	41.61540000
37.09999797	0.00000000	92.35358000	51.98080000
37.29999796	0.00000000	92.35358000	57.41264000
37.49999795	0.00000000	94.68504000	56.62524000
37.69999794	0.00000000	99.28641000	50.15994000
37.89999793	0.00000000	104.26920000	39.84990000
38.09999791	0.00000000	108.55070000	29.48450000
38.29999790	0.00000000	111.20200000	21.77042000
38.49999789	0.00000000	111.24510000	18.33169000
38.69999788	0.00000000	108.96900000	20.65084000
38.89999787	0.00000000	105.47490000	27.86048000
39.09999786	0.00000000	101.19960000	37.42618000
39.29999784	0.00000000	96.96111000	46.25984000
39.49999783	0.00000000	93.84227000	51.98080000
39.69999782	0.00000000	92.26131000	52.71899000
39.89999781	0.00000000	92.30437000	47.74852000
40.09999780	0.00000000	94.21751000	38.96407000
40.29999778	0.00000000	97.70545000	28.97392000
40.49999777	0.00000000	101.57480000	20.56471000
40.69999776	0.00000000	105.47490000	16.33243000
40.89999775	0.00000000	108.55070000	17.44587000
41.09999774	0.00000000	110.13160000	23.20989000
41.29999772	0.00000000	110.13160000	32.08661000
41.49999771	0.00000000	108.59370000	42.07677000
41.69999770	0.00000000	105.85010000	50.48597000
41.89999769	0.00000000	102.40530000	54.71825000
42.09999768	0.00000000	98.87426000	53.60482000
42.29999767	0.00000000	96.16756000	47.88385000
42.49999765	0.00000000	94.21751000	39.43159000
42.69999764	0.00000000	93.84227000	30.59793000
42.89999763	0.00000000	94.96185000	23.62820000
43.09999762	0.00000000	96.91805000	20.14641000
43.29999761	0.00000000	99.56938000	20.47244000
43.49999759	0.00000000	101.89470000	24.28026000
43.69999758	0.00000000	103.11270000	30.04429000
43.89999757	0.00000000	103.98620000	36.22662000
44.09999756	0.00000000	104.69360000	41.65846000
44.29999755	0.00000000	105.10580000	45.14640000
44.49999753	0.00000000	104.73670000	46.30905000
44.69999752	0.00000000	104.40450000	44.77116000
44.89999751	0.00000000	104.36150000	41.00639000
45.09999750	0.00000000	104.31840000	36.78026000
45.29999749	0.00000000	103.85090000	33.24926000
45.49999748	0.00000000	102.31300000	30.55487000
45.69999746	0.00000000	99.94463000	29.39222000
45.89999745	0.00000000	97.23794000	30.13656000
46.09999744	0.00000000	94.12524000	31.99434000
46.29999743	0.00000000	91.88607000	34.36269000
46.49999742	0.00000000	91.09867000	36.64493000
46.69999740	0.00000000	92.35358000	38.63804000
46.89999739	0.00000000	95.89074000	39.75763000
47.09999738	0.00000000	101.71010000	40.16978000
47.29999737	0.00000000	108.59370000	39.38238000
47.49999736	0.00000000	114.36390000	37.85064000
47.69999734	0.00000000	117.48280000	35.89444000
47.89999733	0.00000000	117.43360000	33.57529000
48.09999732	0.00000000	113.89640000	31.66830000
48.29999731	0.00000000	106.92050000	30.51181000
48.49999730	0.00000000	98.08070000	30.55487000
48.69999729	0.00000000	89.56693000	32.08661000
48.89999727	0.00000000	83.42150000	34.78100000
49.09999726	0.00000000	81.14542000	37.89370000
49.29999725	0.00000000	83.88287000	40.96333000
49.49999724	0.00000000	91.14788000	43.23941000
49.69999723	0.00000000	100.82430000	43.61467000
49.89999721	0.00000000	110.45770000	42.11983000
50.09999720	0.00000000	118.17790000	39.38238000
50.29999719	0.00000000	121.62280000	35.89444000
50.49999718	0.00000000	120.09100000	32.04355000
50.69999717	0.00000000	113.94560000	28.97392000
50.89999715	0.00000000	104.73670000	27.43602000
51.09999714	0.00000000	95.47243000	27.86048000
51.29999713	0.00000000	88.12131000	30.55487000
51.49999712	0.00000000	84.30733000	34.78100000
51.69999711	0.00000000	85.42076000	39.38238000
51.89999710	0.00000000	90.77263000	43.23941000
52.09999708	0.00000000	98.44980000	45.19562000
52.29999707	0.00000000	106.54530000	45.23868000
52.49999706	0.00000000	112.69070000	43.65773000
52.69999705	0.00000000	115.43430000	40.54502000
52.89999704	0.00000000	114.27170000	36.31274000
53.09999702	0.00000000	109.71330000	32.12967000
53.29999701	0.00000000	103.15570000	29.43528000
53.49999700	0.00000000	96.62893000	28.97392000
53.69999699	0.00000000	91.56618000	30.08735000
53.89999698	0.00000000	89.37007000	32.04355000
54.09999696	0.00000000	90.87106000	34.78100000
54.29999695	0.00000000	96.16756000	37.75836000
54.49999694	0.00000000	102.22690000	39.65920000
54.69999693	0.00000000	106.96970000	39.33932000
54.89999692	0.00000000	110.03940000	37.89370000
55.09999691	0.00000000	110.82680000	36.31274000
55.29999689	0.00000000	108.87670000	34.78100000
55.49999688	0.00000000	105.05660000	33.66756000
55.69999687	0.00000000	100.03080000	33.66756000
55.89999686	0.00000000	95.46628000	34.82406000
56.09999685	0.00000000	92.77190000	36.68799000
56.29999683	0.00000000	92.72884000	38.58883000
56.49999682	0.00000000	95.00492000	39.29626000
56.69999681	0.00000000	98.49901000	38.54576000
56.89999680	0.00000000	102.73130000	36.17741000
57.09999679	0.00000000	106.50220000	32.78174000
57.29999677	0.00000000	108.08320000	29.29995000
57.49999676	0.00000000	107.38800000	27.06693000
57.69999675	0.00000000	105.47490000	26.69783000
57.89999674	0.00000000	102.78050000	29.06619000
58.09999673	0.00000000	100.08000000	33.62450000
58.29999672	0.00000000	98.12376000	39.05635000
58.49999670	0.00000000	96.96111000	44.03297000
58.69999669	0.00000000	97.00417000	47.46555000
58.89999668	0.00000000	98.49901000	47.84079000
59.09999667	0.00000000	100.78120000	45.14640000
59.29999666	0.00000000	102.68820000	40.08366000
59.49999664	0.00000000	103.89390000	33.15699000
59.69999663	0.00000000	104.22610000	26.27953000
59.89999662	0.00000000	103.52480000	21.67815000
60.09999661	0.00000000	101.99310000	20.52165000
60.29999660	0.00000000	100.82430000	23.20989000
60.49999658	0.00000000	99.66166000	29.01698000
60.69999657	0.00000000	98.96038000	36.68799000
60.89999656	0.00000000	99.70472000	44.39591000
61.09999655	0.00000000	101.19960000	49.79700000
61.29999654	0.00000000	102.73740000	52.11614000
61.49999653	0.00000000	103.89390000	50.48597000
61.69999651	0.00000000	104.26920000	44.77116000
61.89999650	0.00000000	103.89390000	36.68799000
62.09999649	0.00000000	102.73740000	28.59867000
62.29999648	0.00000000	101.15030000	22.01033000
62.49999647	0.00000000	99.23720000	18.56545000
62.69999645	0.00000000	97.33636000	18.94070000
62.89999644	0.00000000	96.58587000	23.20989000
63.09999643	0.00000000	96.96111000	30.51181000
63.29999642	0.00000000	98.54208000	38.96407000
63.49999641	0.00000000	101.19960000	46.30290000
63.69999639	0.00000000	103.89390000	50.95349000
63.89999638	0.00000000	105.85010000	52.10999000
64.09999637	0.00000000	107.01280000	49.42175000
64.29999636	0.00000000	106.96970000	43.70079000
64.49999635	0.00000000	105.43180000	36.78026000
64.69999634	0.00000000	102.78050000	30.55487000
64.89999632	0.00000000	100.08000000	25.86122000
65.09999631	0.00000000	98.12376000	23.16683000
65.29999630	0.00000000	96.96111000	23.16683000
65.49999629	0.00000000	96.96111000	25.81816000
65.69999628	0.00000000	98.07455000	30.04429000
65.89999626	0.00000000	99.66166000	34.73794000
66.09999625	0.00000000	101.61790000	39.38238000
66.29999624	0.00000000	103.85090000	43.23941000
66.49999623	0.00000000	104.97050000	45.23868000
66.69999622	0.00000000	104.22610000	45.65698000
66.89999620	0.00000000	102.36220000	44.86343000
67.09999619	0.00000000	100.08000000	42.54429000
67.29999618	0.00000000	98.54208000	39.47465000
67.49999617	0.00000000	98.16682000	36.31274000
67.69999616	0.00000000	98.91731000	33.15699000
67.89999615	0.00000000	100.86740000	30.08735000
68.09999613	0.00000000	103.15570000	27.72515000
68.29999612	0.00000000	105.43180000	26.59941000
68.49999611	0.00000000	106.55140000	26.56250000
68.69999610	0.00000000	105.85010000	28.18036000
68.89999609	0.00000000	104.22610000	30.93012000
69.09999607	0.00000000	101.47640000	35.20546000
69.29999606	0.00000000	97.29330000	40.12672000
69.49999605	0.00000000	93.93454000	43.65773000
69.69999604	0.00000000	92.72884000	45.65698000
69.89999603	0.00000000	93.88533000	46.35211000
70.09999601	0.00000000	96.96111000	44.77116000
70.29999600	0.00000000	101.24260000	40.92027000
70.49999599	0.00000000	105.85010000	35.94365000
70.69999598	0.00000000	109.71330000	30.88090000
70.89999597	0.00000000	111.62030000	27.01772000
71.09999596	0.00000000	111.24510000	24.69857000
71.29999594	0.00000000	108.50760000	24.74778000
71.49999593	0.00000000	103.89390000	27.39296000
71.69999592	0.00000000	98.44980000	31.61909000
71.89999591	0.00000000	93.46702000	36.26968000
72.09999590	0.00000000	89.98523000	40.50196000
72.29999588	0.00000000	89.19168000	43.19635000
72.49999587	0.00000000	90.72342000	43.61467000
72.69999586	0.00000000	94.26057000	42.11983000
72.89999585	0.00000000	99.61245000	39.42544000
73.09999584	0.00000000	105.01350000	36.36196000
73.29999582	0.00000000	108.92590000	33.66756000
73.49999581	0.00000000	111.24510000	32.12967000
73.69999580	0.00000000	111.20200000	32.04355000
73.89999579	0.00000000	108.55070000	32.78174000
74.09999578	0.00000000	104.36150000	33.57529000
74.29999577	0.00000000	100.08000000	34.73794000
74.49999575	0.00000000	96.54281000	35.80217000
74.69999574	0.00000000	93.84227000	35.80217000
74.89999573	0.00000000	92.72884000	34.68873000
75.09999572	0.00000000	93.84227000	33.20005000
75.29999571	0.00000000	96.45053000	32.04355000
75.49999569	0.00000000	99.19414000	31.71137000
75.69999568	0.00000000	101.57480000	32.50492000
75.89999567	0.00000000	103.89390000	34.82406000
76.09999566	0.00000000	105.38880000	37.89370000
76.29999565	0.00000000	105.43180000	40.96333000
76.49999563	0.00000000	104.31840000	43.23941000
76.69999562	0.00000000	102.82360000	43.61467000
76.89999561	0.00000000	101.66710000	42.03371000
77.09999560	0.00000000	101.24260000	38.50270000
77.29999559	0.00000000	101.19960000	33.15699000
77.49999558	0.00000000	101.19960000	27.86048000
77.69999556	0.00000000	101.19960000	24.69857000
77.89999555	0.00000000	101.15650000	23.90502000
78.09999554	0.00000000	100.73200000	25.12303000
78.29999553	0.00000000	99.61245000	29.01698000
78.49999552	0.00000000	98.49901000	34.73794000
78.69999550	0.00000000	98.12376000	40.54502000
78.89999549	0.00000000	98.49901000	45.19562000
79.09999548	0.00000000	99.66166000	47.88385000
79.29999547	0.00000000	101.24260000	47.88385000
79.49999546	0.00000000	103.19880000	45.19562000
79.69999544	0.00000000	105.47490000	40.58809000
79.89999543	0.00000000	106.96970000	35.15625000
80.09999542	0.00000000	106.96970000	30.13656000
80.29999541	0.00000000	105.43180000	26.23647000
80.49999540	0.00000000	102.78050000	24.32948000
80.69999539	0.00000000	100.03080000	24.69857000
80.89999537	0.00000000	97.69931000	27.39296000
81.09999536	0.00000000	95.79847000	31.57603000
81.29999535	0.00000000	95.42323000	35.89444000
81.49999534	0.00000000	96.54281000	39.80069000
81.69999533	0.00000000	98.49901000	43.28247000
81.89999531	0.00000000	101.19960000	45.19562000
82.09999530	0.00000000	103.85090000	45.28174000
82.29999529	0.00000000	105.43180000	44.07603000
82.49999528	0.00000000	105.85010000	41.75073000
82.69999527	0.00000000	105.43180000	38.22588000
82.89999525	0.00000000	103.94320000	34.40575000
83.09999524	0.00000000	101.99310000	30.83784000
83.29999523	0.00000000	100.44910000	28.13730000
83.49999522	0.00000000	98.87426000	26.19340000
83.69999521	0.00000000	98.16682000	25.86122000
83.89999520	0.00000000	98.44980000	27.39296000
84.09999518	0.00000000	99.19414000	30.51181000
84.29999517	0.00000000	99.61245000	34.78100000
84.49999516	0.00000000	99.98769000	39.38238000
84.69999515	0.00000000	100.39980000	43.23941000
84.89999514	0.00000000	100.41210000	45.23868000
85.09999512	0.00000000	100.82430000	45.61392000
85.29999511	0.00000000	101.15650000	44.40207000
85.49999510	0.00000000	101.24260000	40.87721000
85.69999509	0.00000000	101.61790000	35.94365000
85.89999508	0.00000000	102.36220000	30.88090000
86.09999506	0.00000000	102.68820000	27.01772000
86.29999505	0.00000000	102.36220000	24.65551000
86.49999504	0.00000000	101.53170000	24.32948000
86.69999503	0.00000000	100.40600000	26.27953000
86.89999502	0.00000000	98.82504000	30.51181000
87.09999501	0.00000000	97.69931000	35.85138000
87.29999499	0.00000000	96.91805000	40.50196000
87.49999498	0.00000000	96.96111000	43.61467000
87.69999497	0.00000000	98.07455000	44.77116000
87.89999496	0.00000000	99.66166000	43.61467000
88.09999495	0.00000000	101.57480000	40.50196000
88.29999493	0.00000000	103.52480000	35.85138000
88.49999492	0.00000000	104.64440000	30.51181000
88.69999491	0.00000000	105.05660000	26.32874000
88.89999490	0.00000000	104.22610000	24.74778000
89.09999489	0.00000000	102.36220000	25.86122000
89.29999487	0.00000000	100.08000000	28.97392000
89.49999486	0.00000000	98.49901000	33.57529000
89.69999485	0.00000000	97.69931000	38.58883000
89.89999484	0.00000000	97.33636000	42.40895000
90.09999483	0.00000000	98.07455000	44.35285000
90.29999482	0.00000000	99.23720000	43.57160000
90.49999480	0.00000000	100.40600000	40.50196000
90.69999479	0.00000000	101.93770000	35.89444000
90.89999478	0.00000000	102.68820000	30.93012000
91.09999477	0.00000000	102.78050000	27.48524000
91.29999476	0.00000000	102.73740000	26.27953000
91.49999474	0.00000000	102.36220000	27.48524000
91.69999473	0.00000000	101.57480000	30.93012000
91.89999472	0.00000000	100.86740000	35.89444000
92.09999471	0.00000000	100.45520000	40.45275000
92.29999470	0.00000000	100.82430000	43.19635000
92.49999468	0.00000000	101.10730000	43.56545000
92.69999467	0.00000000	100.82430000	41.70152000
92.89999466	0.00000000	100.36290000	38.17667000
93.09999465	0.00000000	99.98154000	33.98745000
93.29999464	0.00000000	98.82504000	29.76747000
93.49999463	0.00000000	98.12376000	27.48524000
93.69999461	0.00000000	98.07455000	27.43602000
93.89999460	0.00000000	98.49901000	29.39222000
94.09999459	0.00000000	99.70472000	33.20005000
94.29999458	0.00000000	101.61790000	37.43233000
94.49999457	0.00000000	103.89390000	40.87721000
94.69999455	0.00000000	105.43180000	42.82111000
94.89999454	0.00000000	105.85010000	42.40895000
95.09999453	0.00000000	105.43180000	40.12672000
95.29999452	0.00000000	103.85090000	36.26968000
95.49999451	0.00000000	101.19960000	32.08661000
95.69999449	0.00000000	98.44980000	29.01698000
95.89999448	0.00000000	96.11835000	27.86048000
96.09999447	0.00000000	94.21751000	28.97392000
96.29999446	0.00000000	93.84227000	31.66830000
96.49999445	0.00000000	95.00492000	35.11319000
96.69999444	0.00000000	97.33636000	38.54576000
96.89999442	0.00000000	100.86740000	40.50196000
97.09999441	0.00000000	104.69360000	40.92027000
97.29999440	0.00000000	108.17540000	40.12672000
97.49999439	0.00000000	110.03940000	37.85064000
97.69999438	0.00000000	109.71330000	35.19931000
97.89999436	0.00000000	107.38800000	33.24926000
98.09999435	0.00000000	103.89390000	32.04355000
98.29999434	0.00000000	99.66166000	31.66830000
98.49999433	0.00000000	95.79847000	32.04355000
98.69999432	0.00000000	93.42396000	33.20005000
98.89999430	0.00000000	92.26131000	34.68873000
99.09999429	0.00000000	92.72884000	35.85138000
99.29999428	0.00000000	95.33710000	36.26968000
99.49999427	0.00000000	98.86195000	36.31274000
99.69999426	0.00000000	102.36830000	36.31274000
99.89999425	0.00000000	106.21920000	36.31274000
100.09999423	0.00000000	108.45840000	36.31274000
100.29999422	0.00000000	108.59370000	36.35580000
100.49999421	0.00000000	107.43110000	36.73105000
100.69999420	0.00000000	105.47490000	37.42618000
100.89999419	0.00000000	102.73130000	37.38312000
101.09999417	0.00000000	99.66166000	36.26968000
101.29999416	0.00000000	96.96111000	34.73794000
101.49999415	0.00000000	95.38016000	33.20005000
101.69999414	0.00000000	94.96185000	31.99434000
101.89999413	0.00000000	95.38016000	31.25000000
102.09999411	0.00000000	96.91805000	30.93012000
102.29999410	0.00000000	99.23720000	32.12967000
102.49999409	0.00000000	101.57480000	34.73794000
102.69999408	0.00000000	103.89390000	37.43233000
102.89999407	0.00000000	105.43180000	39.38238000
103.09999406	0.00000000	105.85010000	40.54502000
103.29999404	0.00000000	105.43180000	40.50196000
103.49999403	0.00000000	103.89390000	38.96407000
103.69999402	0.00000000	101.57480000	36.26968000
103.89999401	0.00000000	99.28641000	33.20005000
104.09999400	0.00000000	97.33636000	30.51181000
104.29999398	0.00000000	96.54281000	28.97392000
104.49999397	0.00000000	96.49360000	28.97392000
104.69999396	0.00000000	96.96111000	30.51181000
104.89999395	0.00000000	98.44980000	33.15699000
105.09999394	0.00000000	100.35680000	35.85138000
105.29999392	0.00000000	101.53170000	37.85064000
105.49999391	0.00000000	102.36220000	39.38238000
105.69999390	0.00000000	102.68820000	40.08366000
105.89999389	0.00000000	102.36220000	38.96407000
106.09999388	0.00000000	101.57480000	36.68799000
106.29999387	0.00000000	100.78120000	34.36269000
106.49999385	0.00000000	99.66166000	32.08661000
106.69999384	0.00000000	98.91731000	30.97318000
106.89999383	0.00000000	99.28026000	31.66830000
107.09999382	0.00000000	100.03080000	33.15699000
107.29999381	0.00000000	101.19960000	34.73794000
107.49999379	0.00000000	102.31300000	36.31274000
107.69999378	0.00000000	102.73740000	37.80142000
107.89999377	0.00000000	102.73740000	38.54576000
108.09999376	0.00000000	102.31300000	37.80142000
108.29999375	0.00000000	101.15030000	36.31274000
108.49999374	0.00000000	99.66166000	34.73794000
108.69999372	0.00000000	98.49901000	33.20005000
108.89999371	0.00000000	98.07455000	32.08661000
109.09999370	0.00000000	98.07455000	32.08661000
109.29999369	0.00000000	98.49901000	33.20005000
109.49999368	0.00000000	99.66166000	34.73794000
109.69999366	0.00000000	101.15030000	36.31274000
109.89999365	0.00000000	102.31300000	37.85064000
110.09999364	0.00000000	102.73740000	38.96407000
110.29999363	0.00000000	102.73740000	38.96407000
110.49999362	0.00000000	102.31300000	37.85064000
110.69999360	0.00000000	101.19960000	36.31274000
110.89999359	0.00000000	100.03080000	34.73794000
111.09999358	0.00000000	99.23720000	33.20005000
111.29999357	0.00000000	98.49901000	32.04355000
111.49999356	0.00000000	98.49901000	31.66830000
111.69999355	0.00000000	99.23720000	32.04355000
111.89999353	0.00000000	100.03080000	33.20005000
112.09999352	0.00000000	101.19960000	34.68873000
112.29999351	0.00000000	102.31300000	35.89444000
112.49999350	0.00000000	102.68820000	36.68799000
112.69999349	0.00000000	102.36220000	37.47539000
112.89999347	0.00000000	101.61790000	37.80142000
113.09999346	0.00000000	101.24260000	37.47539000
113.29999345	0.00000000	101.15650000	36.73105000
113.49999344	0.00000000	100.78120000	36.31274000
113.69999343	0.00000000	100.03080000	35.89444000
113.89999341	0.00000000	99.70472000	35.15625000
114.09999340	0.00000000	100.03080000	34.78100000
114.29999339	0.00000000	100.82430000	34.73794000
114.49999338	0.00000000	101.53170000	34.73794000
114.69999337	0.00000000	101.94390000	34.69488000
114.89999336	0.00000000	101.61790000	34.36269000
115.09999334	0.00000000	101.61790000	33.99360000
115.29999333	0.00000000	101.94390000	34.36269000
115.49999332	0.00000000	101.57480000	34.69488000
115.69999331	0.00000000	101.19960000	34.78100000
115.89999330	0.00000000	100.82430000	35.15625000
116.09999328	0.00000000	100.41210000	35.89444000
116.29999327	0.00000000	100.39980000	36.26968000
116.49999326	0.00000000	99.98769000	36.31274000
116.69999325	0.00000000	99.65550000	36.31274000
116.89999324	0.00000000	99.61245000	36.22047000
117.09999322	0.00000000	99.65550000	35.56225000
117.29999321	0.00000000	100.03080000	34.74409000
117.49999320	0.00000000	100.82430000	34.72564000
117.69999319	0.00000000	101.57480000	33.90748000
117.89999318	0.00000000	102.36220000	33.24926000
118.09999317	0.00000000	102.68820000	33.15699000
118.29999315	0.00000000	102.36220000	33.15699000
118.49999314	0.00000000	101.57480000	33.20005000
118.69999313	0.00000000	100.78120000	33.57529000
118.89999312	0.00000000	99.61245000	34.36269000
119.09999311	0.00000000	98.49901000	35.11319000
119.29999309	0.00000000	98.07455000	35.89444000
119.49999308	0.00000000	98.07455000	36.26968000
119.69999307	0.00000000	98.44980000	36.31274000
119.89999306	0.00000000	99.23720000	36.31274000
120.09999305	0.00000000	100.03080000	36.26968000
120.29999303	0.00000000	101.19960000	35.89444000
120.49999302	0.00000000	102.31300000	35.15625000
120.69999301	0.00000000	102.73740000	34.73794000
120.89999300	0.00000000	102.73740000	34.31963000
121.09999299	0.00000000	102.31300000	33.57529000
121.29999298	0.00000000	101.19960000	33.20005000
121.49999296	0.00000000	100.03080000	33.15699000
121.69999295	0.00000000	99.19414000	33.20005000
121.89999294	0.00000000	98.07455000	33.57529000
122.09999293	0.00000000	97.33636000	34.36269000
122.29999292	0.00000000	97.65624000	35.11319000
122.49999290	0.00000000	98.03149000	35.89444000
122.69999289	0.00000000	98.49901000	36.26968000
122.89999288	0.00000000	99.66166000	36.31274000
123.09999287	0.00000000	101.15030000	36.31274000
123.29999286	0.00000000	102.31300000	36.26968000
123.49999284	0.00000000	102.73740000	35.89444000
123.69999283	0.00000000	102.73740000	35.11319000
123.89999282	0.00000000	102.40530000	34.40575000
124.09999281	0.00000000	101.95000000	33.95054000
124.29999280	0.00000000	101.56250000	33.94439000
124.49999279	0.00000000	100.36290000	33.57529000
124.69999277	0.00000000	99.28026000	33.62450000
124.89999276	0.00000000	98.44980000	34.31963000
125.09999275	0.00000000	98.07455000	34.69488000
125.29999274	0.00000000	98.03149000	34.78100000
125.49999273	0.00000000	98.07455000	35.15625000
125.69999271	0.00000000	98.49901000	35.89444000
125.89999270	0.00000000	99.61245000	36.26968000
126.09999269	0.00000000	100.78120000	36.31274000
126.29999268	0.00000000	101.57480000	36.31274000
126.49999267	0.00000000	102.36220000	36.31274000
126.69999265	0.00000000	102.73740000	36.26968000
126.89999264	0.00000000	102.73740000	35.89444000
127.09999263	0.00000000	102.31300000	35.15625000
127.29999262	0.00000000	101.15030000	34.78100000
127.49999261	0.00000000	99.66166000	34.73794000
127.69999260	0.00000000	98.49901000	34.73794000
127.89999258	0.00000000	98.07455000	34.73794000
128.09999257	0.00000000	98.07455000	34.78100000
128.29999256	0.00000000	98.49901000	35.15625000
128.49999255	0.00000000	99.61245000	35.89444000
128.69999254	0.00000000	100.78120000	36.26968000
128.89999252	0.00000000	101.57480000	36.31274000
129.09999251	0.00000000	102.36220000	36.26968000
129.29999250	0.00000000	102.68820000	35.89444000
129.49999249	0.00000000	102.36220000	35.15625000
129.69999248	0.00000000	101.53170000	34.73794000
129.89999246	0.00000000	100.40600000	34.36269000
130.09999245	0.00000000	98.87426000	33.99360000
130.29999244	0.00000000	98.12376000	34.36269000
130.49999243	0.00000000	98.07455000	34.69488000
130.69999242	0.00000000	98.44980000	34.78100000
130.89999241	0.00000000	99.23720000	35.15625000
131.09999239	0.00000000	100.03080000	35.85138000
131.29999238	0.00000000	101.19960000	35.85138000
131.49999237	0.00000000	102.31300000	35.15625000
131.69999236	0.00000000	102.68820000	34.73794000
131.89999235	0.00000000	102.31300000	34.31963000
132.09999233	0.00000000	101.19960000	33.62450000
132.29999232	0.00000000	100.08000000	33.57529000
132.49999231	0.00000000	99.65550000	33.90133000
132.69999230	0.00000000	99.61245000	33.57529000
132.89999229	0.00000000	99.61245000	33.62450000
133.09999227	0.00000000	99.61245000	34.36269000
133.29999226	0.00000000	99.65550000	35.11319000
133.49999225	0.00000000	99.98769000	35.89444000
133.69999224	0.00000000	100.35680000	36.26968000
133.89999223	0.00000000	100.03080000	36.26968000
134.09999222	0.00000000	100.03080000	35.89444000
134.29999220	0.00000000	100.35680000	35.11319000
134.49999219	0.00000000	99.98769000	34.36269000
134.69999218	0.00000000	99.65550000	33.57529000
134.89999217	0.00000000	99.65550000	33.20005000
135.09999216	0.00000000	100.03080000	33.15699000
135.29999214	0.00000000	100.78120000	33.15699000
135.49999213	0.00000000	101.15650000	33.20005000
135.69999212	0.00000000	101.15650000	33.62450000
135.89999211	0.00000000	100.78120000	34.73794000
136.09999210	0.00000000	99.98769000	35.85138000
136.29999208	0.00000000	99.23720000	36.26968000
136.49999207	0.00000000	98.44980000	36.31274000
136.69999206	0.00000000	98.07455000	36.31274000
136.89999205	0.00000000	98.07455000	36.26968000
137.09999204	0.00000000	98.49901000	35.89444000
137.29999203	0.00000000	99.61245000	35.11319000
137.49999201	0.00000000	100.73200000	34.36269000
137.69999200	0.00000000	101.15650000	33.57529000
137.89999199	0.00000000	101.19960000	33.20005000
138.09999198	0.00000000	101.19960000	33.15699000
138.29999197	0.00000000	101.15650000	33.15699000
138.49999195	0.00000000	100.73200000	33.20005000
138.69999194	0.00000000	99.66166000	33.57529000
138.89999193	0.00000000	98.86810000	34.36269000
139.09999192	0.00000000	98.81889000	35.11319000
139.29999191	0.00000000	98.44980000	35.89444000
139.49999189	0.00000000	98.49901000	36.26968000
139.69999188	0.00000000	99.23720000	36.31274000
139.89999187	0.00000000	99.98769000	36.31274000
140.09999186	0.00000000	100.78120000	36.26968000
140.29999185	0.00000000	101.15650000	35.85138000
140.49999184	0.00000000	101.19960000	34.73794000
140.69999182	0.00000000	101.19960000	33.62450000
140.89999181	0.00000000	101.15650000	33.20005000
141.09999180	0.00000000	100.78120000	33.15699000
141.29999179	0.00000000	100.03080000	33.20005000
141.49999178	0.00000000	99.65550000	33.57529000
141.69999176	0.00000000	99.61245000	34.36269000
141.89999175	0.00000000	99.65550000	35.11319000
142.09999174	0.00000000	100.03080000	35.93750000
142.29999173	0.00000000	100.78120000	36.68799000
142.49999172	0.00000000	101.15650000	37.42618000
142.69999170	0.00000000	101.19960000	37.42618000
142.89999169	0.00000000	101.15650000	36.68799000
143.09999168	0.00000000	100.78120000	35.89444000
143.29999167	0.00000000	100.03080000	34.73794000
143.49999166	0.00000000	99.65550000	33.62450000
143.69999165	0.00000000	99.61245000	33.20005000
143.89999163	0.00000000	99.61245000	33.15699000
144.09999162	0.00000000	99.61245000	33.20005000
144.29999161	0.00000000	99.65550000	33.62450000
144.49999160	0.00000000	100.03080000	34.73794000
144.69999159	0.00000000	100.78120000	35.85138000
144.89999157	0.00000000	101.15650000	36.26968000
145.09999156	0.00000000	101.19960000	36.31274000
145.29999155	0.00000000	101.15650000	36.31274000
145.49999154	0.00000000	100.78120000	36.26968000
145.69999153	0.00000000	100.03080000	35.89444000
145.89999151	0.00000000	99.65550000	35.11319000
146.09999150	0.00000000	99.61245000	34.36269000
146.29999149	0.00000000	99.61245000	33.57529000
146.49999148	0.00000000	99.61245000	33.20005000
146.69999147	0.00000000	99.65550000	33.20005000
146.89999146	0.00000000	99.98769000	33.57529000
147.09999144	0.00000000	100.39980000	34.31963000
147.29999143	0.00000000	100.41210000	34.69488000
147.49999142	0.00000000	100.78120000	34.78100000
147.69999141	0.00000000	100.73200000	35.11319000
147.89999140	0.00000000	100.03080000	35.47613000
148.09999138	0.00000000	99.65550000	35.11319000
148.29999137	0.00000000	99.61245000	34.78100000
148.49999136	0.00000000	99.61245000	34.73794000
148.69999135	0.00000000	99.61245000	34.69488000
148.89999134	0.00000000	99.61245000	34.31963000
149.09999132	0.00000000	99.61245000	33.57529000
149.29999131	0.00000000	99.61245000	33.20005000
149.49999130	0.00000000	99.65550000	33.15699000
149.69999129	0.00000000	100.03080000	33.20005000
149.89999128	0.00000000	100.78120000	33.57529000
150.09999127	0.00000000	101.10730000	34.31963000
150.29999125	0.00000000	100.78120000	34.69488000
150.49999124	0.00000000	100.03080000	34.73794000
150.69999123	0.00000000	99.65550000	34.73794000
150.89999122	0.00000000	99.61245000	34.73794000
151.09999121	0.00000000	99.61245000	34.73794000
151.29999119	0.00000000	99.61245000	34.73794000
151.49999118	0.00000000	99.61245000	34.73794000
151.69999117	0.00000000	99.61245000	34.69488000
151.89999116	0.00000000	99.61245000	34.31963000
152.09999115	0.00000000	99.61245000	33.62450000
152.29999113	0.00000000	99.65550000	33.62450000
152.49999112	0.00000000	99.98769000	34.31963000
152.69999111	0.00000000	100.39980000	34.69488000
152.89999110	0.00000000	100.41210000	34.73794000
153.09999109	0.00000000	100.78120000	34.73794000
153.29999108	0.00000000	100.78120000	34.73794000
153.49999106	0.00000000	100.41210000	34.73794000
153.69999105	0.00000000	100.39980000	34.73794000
153.89999104	0.00000000	99.98769000	34.73794000
154.09999103	0.00000000	99.61245000	34.73794000
154.29999102	0.00000000	99.19414000	34.73794000
154.49999100	0.00000000	98.49901000	34.73794000
154.69999099	0.00000000	98.49901000	34.73794000
154.89999098	0.00000000	99.19414000	34.73794000
155.09999097	0.00000000	99.61245000	34.73794000
155.29999096	0.00000000	99.98769000	34.73794000
155.49999094	0.00000000	100.39980000	34.73794000
155.69999093	0.00000000	100.41210000	34.73794000
155.89999092	0.00000000	100.82430000	34.73794000
156.09999091	0.00000000	101.10730000	34.73794000
156.29999090	0.00000000	100.78120000	34.73794000
156.49999089	0.00000000	100.03080000	34.73794000
156.69999087	0.00000000	99.65550000	34.78100000
156.89999086	0.00000000	99.56938000	35.15625000
157.09999085	0.00000000	99.19414000	35.89444000
157.29999084	0.00000000	98.44980000	36.22047000
157.49999083	0.00000000	98.12376000	35.89444000
157.69999081	0.00000000	98.44980000	35.15625000
157.89999080	0.00000000	99.19414000	34.78100000
158.09999079	0.00000000	99.56938000	34.69488000
158.29999078	0.00000000	99.65550000	34.31963000
158.49999077	0.00000000	100.03080000	33.57529000
158.69999075	0.00000000	100.78120000	33.24926000
158.89999074	0.00000000	101.10730000	33.57529000
159.09999073	0.00000000	100.82430000	34.31963000
159.29999072	0.00000000	100.41210000	34.73794000
159.49999071	0.00000000	100.39980000	35.11319000
159.69999070	0.00000000	99.98769000	35.51919000
159.89999068	0.00000000	99.65550000	35.53149000
160.09999067	0.00000000	99.61245000	35.89444000
160.29999066	0.00000000	99.61245000	35.85138000
160.49999065	0.00000000	99.56938000	35.15625000
160.69999064	0.00000000	99.23720000	34.78100000
160.89999062	0.00000000	98.86810000	34.69488000
161.09999061	0.00000000	99.23720000	34.31963000
161.29999060	0.00000000	99.56938000	33.57529000
161.49999059	0.00000000	99.61245000	33.20005000
161.69999058	0.00000000	99.65550000	33.20005000
161.89999056	0.00000000	99.98769000	33.57529000
162.09999055	0.00000000	100.35680000	34.31963000
162.29999054	0.00000000	99.98769000	34.69488000
162.49999053	0.00000000	99.65550000	34.73794000
162.69999052	0.00000000	99.61245000	34.73794000
162.89999051	0.00000000	99.61245000	34.73794000
163.09999049	0.00000000	99.61245000	34.73794000
163.29999048	0.00000000	99.56938000	34.73794000
163.49999047	0.00000000	99.19414000	34.69488000
163.69999046	0.00000000	98.49901000	34.31963000
163.89999045	0.00000000	98.49901000	33.62450000
164.09999043	0.00000000	99.19414000	33.57529000
164.29999042	0.00000000	99.56938000	33.94439000
164.49999041	0.00000000	99.61245000	33.90748000
164.69999040	0.00000000	99.61245000	33.94439000
164.89999039	0.00000000	99.61245000	33.53223000
165.09999037	0.00000000	99.65550000	33.24926000
165.29999036	0.00000000	99.98769000	33.57529000
165.49999035	0.00000000	100.35680000	34.31963000
165.69999034	0.00000000	99.98769000	34.69488000
165.89999033	0.00000000	99.65550000	34.73794000
166.09999032	0.00000000	99.56938000	34.73794000
166.29999030	0.00000000	99.19414000	34.73794000
166.49999029	0.00000000	98.44980000	34.73794000
166.69999028	0.00000000	98.12376000	34.73794000
166.89999027	0.00000000	98.44980000	34.69488000
167.09999026	0.00000000	99.19414000	34.36269000
167.29999024	0.00000000	99.56938000	33.99360000
167.49999023	0.00000000	99.61245000	34.36269000
167.69999022	0.00000000	99.61245000	34.69488000
167.89999021	0.00000000	99.61245000	34.73794000
168.09999020	0.00000000	99.61245000	34.73794000
168.29999018	0.00000000	99.61245000	34.73794000
168.49999017	0.00000000	99.61245000	34.73794000
168.69999016	0.00000000	99.61245000	34.73794000
168.89999015	0.00000000	99.61245000	34.73794000
169.09999014	0.00000000	99.61245000	34.73794000
169.29999013	0.00000000	99.61245000	34.73794000
169.49999011	0.00000000	99.61245000	34.73794000
169.69999010	0.00000000	99.61245000	34.73794000
169.89999009	0.00000000	99.61245000	34.73794000
170.09999008	0.00000000	99.61245000	34.73794000
170.29999007	0.00000000	99.61245000	34.73794000
170.49999005	0.00000000	99.61245000	34.73794000
170.69999004	0.00000000	99.61245000	34.73794000
170.89999003	0.00000000	99.61245000	34.73794000
171.09999002	0.00000000	99.65550000	34.73794000
171.29999001	0.00000000	99.98769000	34.73794000
171.49998999	0.00000000	100.35680000	34.69488000
171.69998998	0.00000000	99.98769000	34.31963000
171.89998997	0.00000000	99.65550000	33.62450000
172.09998996	0.00000000	99.56938000	33.62450000
172.29998995	0.00000000	99.23720000	34.31963000
172.49998994	0.00000000	98.82504000	34.69488000
172.69998992	0.00000000	98.86195000	34.73794000
172.89998991	0.00000000	98.82504000	34.73794000
173.09998990	0.00000000	99.23720000	34.73794000
173.29998989	0.00000000	99.56938000	34.73794000
173.49998988	0.00000000	99.65550000	34.69488000
173.69998986	0.00000000	99.98769000	34.36269000
173.89998985	0.00000000	100.35680000	33.99360000
174.09998984	0.00000000	99.98769000	34.36269000
174.29998983	0.00000000	99.65550000	34.69488000
174.49998982	0.00000000	99.61245000	34.73794000
174.69998980	0.00000000	99.61245000	34.73794000
174.89998979	0.00000000	99.61245000	34.73794000
175.09998978	0.00000000	99.61245000	34.73794000
175.29998977	0.00000000	99.61245000	34.73794000
175.49998976	0.00000000	99.61245000	34.73794000
175.69998975	0.00000000	99.61245000	34.73794000
175.89998973	0.00000000	99.61245000	34.73794000
176.09998972	0.00000000	99.61245000	34.73794000
176.29998971	0.00000000	99.61245000	34.73794000
176.49998970	0.00000000	99.61245000	34.73794000
176.69998969	0.00000000	99.61245000	34.73794000
176.89998967	0.00000000	99.61245000	34.73794000
177.09998966	0.00000000	99.61245000	34.73794000
177.29998965	0.00000000	99.61245000	34.73794000
177.49998964	0.00000000	99.61245000	34.69488000
177.69998963	0.00000000	99.61245000	34.31963000
177.89998961	0.00000000	99.61245000	33.62450000
178.09998960	0.00000000	99.61245000	33.57529000
178.29998959	0.00000000	99.61245000	33.94439000
178.49998958	0.00000000	99.61245000	33.95054000
178.69998957	0.00000000	99.61245000	34.36269000
178.89998956	0.00000000	99.56938000	34.64567000
179.09998954	0.00000000	99.28026000	34.36269000
179.29998953	0.00000000	99.24950000	33.95054000
179.49998952	0.00000000	99.98154000	33.98745000
179.69998951	0.00000000	99.94463000	33.90748000
179.89998950	0.00000000	99.65550000	33.94439000
180.09998948	0.00000000	99.61245000	33.53223000
180.29998947	0.00000000	99.61245000	33.20005000
180.49998946	0.00000000	99.56938000	33.15699000
180.69998945	0.00000000	99.19414000	33.15699000
180.89998944	0.00000000	98.44980000	33.15699000
181.09998942	0.00000000	98.12376000	33.20005000
181.29998941	0.00000000	98.40673000	33.57529000
181.49998940	0.00000000	98.81889000	34.31963000
181.69998939	0.00000000	98.82504000	34.69488000
181.89998938	0.00000000	99.23720000	34.73794000
182.09998937	0.00000000	99.56938000	34.73794000
182.29998935	0.00000000	99.61245000	34.73794000
182.49998934	0.00000000	99.61245000	34.69488000
182.69998933	0.00000000	99.61245000	34.31963000
182.89998932	0.00000000	99.61245000	33.57529000
183.09998931	0.00000000	99.61245000	33.20005000
183.29998929	0.00000000	99.61245000	33.15699000
183.49998928	0.00000000	99.61245000	33.15699000
183.69998927	0.00000000	99.56938000	33.15699000
183.89998926	0.00000000	99.23720000	33.20005000
184.09998925	0.00000000	98.82504000	33.57529000
184.29998923	0.00000000	98.86195000	34.31963000
184.49998922	0.00000000	98.78198000	34.69488000
184.69998921	0.00000000	98.86195000	34.73794000
184.89998920	0.00000000	98.82504000	34.73794000
185.09998919	0.00000000	99.19414000	34.73794000
185.29998918	0.00000000	99.19414000	34.73794000
185.49998916	0.00000000	98.86810000	34.73794000
185.69998915	0.00000000	99.23720000	34.69488000
185.89998914	0.00000000	99.56938000	34.31963000
186.09998913	0.00000000	99.61245000	33.57529000
186.29998912	0.00000000	99.61245000	33.20005000
186.49998910	0.00000000	99.61245000	33.15699000
186.69998909	0.00000000	99.61245000	33.20005000
186.89998908	0.00000000	99.56938000	33.57529000
187.09998907	0.00000000	99.23720000	34.31963000
187.29998906	0.00000000	98.82504000	34.69488000
187.49998904	0.00000000	98.86195000	34.73794000
187.69998903	0.00000000	98.82504000	34.78100000
187.89998902	0.00000000	99.23720000	35.11319000
188.09998901	0.00000000	99.52017000	35.47613000
188.29998900	0.00000000	99.23720000	35.06397000
188.49998899	0.00000000	98.86810000	34.40575000
188.69998897	0.00000000	99.23720000	33.99360000
188.89998896	0.00000000	99.56938000	34.31963000
189.09998895	0.00000000	99.61245000	34.27042000
189.29998894	0.00000000	99.61245000	33.57529000
189.49998893	0.00000000	99.61245000	33.20005000
189.69998891	0.00000000	99.61245000	33.15699000
189.89998890	0.00000000	99.61245000	33.20005000
190.09998889	0.00000000	99.56938000	33.57529000
190.29998888	0.00000000	99.23720000	34.31963000
190.49998887	0.00000000	98.82504000	34.69488000
190.69998885	0.00000000	98.86195000	34.73794000
190.89998884	0.00000000	98.78198000	34.73794000
191.09998883	0.00000000	98.86195000	34.73794000
191.29998882	0.00000000	98.82504000	34.73794000
191.49998881	0.00000000	99.23720000	34.73794000
191.69998880	0.00000000	99.56938000	34.73794000
191.89998878	0.00000000	99.61245000	34.69488000
192.09998877	0.00000000	99.61245000	34.31963000
192.29998876	0.00000000	99.61245000	33.57529000
192.49998875	0.00000000	99.56938000	33.20005000
192.69998874	0.00000000	99.19414000	33.15699000
192.89998872	0.00000000	98.44980000	33.15699000
193.09998871	0.00000000	98.07455000	33.20005000
193.29998870	0.00000000	98.03149000	33.57529000
193.49998869	0.00000000	98.07455000	34.31963000
193.69998868	0.00000000	98.40673000	34.64567000
193.89998866	0.00000000	98.77583000	34.36269000
194.09998865	0.00000000	98.44980000	33.99360000
194.29998864	0.00000000	98.49901000	34.36269000
194.49998863	0.00000000	99.19414000	34.69488000
194.69998862	0.00000000	99.56938000	34.73794000
194.89998861	0.00000000	99.61245000	34.69488000
195.09998859	0.00000000	99.61245000	34.36269000
195.29998858	0.00000000	99.56938000	33.95054000
195.49998857	0.00000000	99.19414000	33.94439000
195.69998856	0.00000000	98.44980000	33.53223000
195.89998855	0.00000000	98.07455000	33.20005000
196.09998853	0.00000000	98.03149000	33.15699000
