Time	Channel A	Channel B	Channel C
(us)	(V)	(mV)	(mV)

-4.49999956	0.00000000	58.91978000	28.42027000
-4.29999957	0.00000000	59.66412000	28.42027000
-4.09999958	0.00000000	59.99015000	28.42027000
-3.89999959	0.00000000	59.70718000	28.37721000
-3.69999960	0.00000000	59.29502000	28.00197000
-3.49999962	0.00000000	59.33194000	27.30684000
-3.29999963	0.00000000	59.29502000	27.30684000
-3.09999964	0.00000000	59.66412000	28.00197000
-2.89999965	0.00000000	59.61491000	28.37721000
-2.69999966	0.00000000	58.91978000	28.37721000
-2.49999968	0.00000000	58.59375000	28.00197000
-2.29999969	0.00000000	58.91978000	27.25763000
-2.09999970	0.00000000	59.61491000	26.88238000
-1.89999971	0.00000000	59.66412000	26.83932000
-1.69999972	0.00000000	59.33809000	26.88238000
-1.49999973	0.00000000	59.66412000	27.25763000
-1.29999975	0.00000000	59.61491000	27.95275000
-1.09999976	0.00000000	58.96899000	28.00197000
-0.89999977	0.00000000	58.91978000	27.67593000
-0.69999978	0.00000000	59.24582000	28.04503000
-0.49999979	0.00000000	58.91978000	28.37721000
-0.29999981	0.31803640	58.96899000	28.42027000
-0.09999982	0.63668800	59.66412000	28.42027000
0.10000017	0.95533960	60.03937000	28.42027000
0.30000016	1.11466500	60.08243000	28.42027000
0.50000015	0.79601380	60.08243000	28.42027000
0.70000013	0.47736220	60.08243000	28.42027000
0.90000012	-0.31803640	60.08243000	28.42027000
1.10000011	-1.43331700	60.08243000	28.42027000
1.30000010	-2.22994600	60.08243000	28.42027000
1.50000009	-2.70792300	60.08243000	28.42027000
1.70000008	-2.54859700	60.08243000	28.42027000
1.90000006	-1.43331700	60.08243000	28.46333000
2.10000005	0.15871060	60.08243000	28.79552000
2.30000004	2.22994600	60.08243000	29.16461000
2.50000003	4.30056600	60.08243000	28.79552000
2.70000002	5.25652100	60.08243000	28.46333000
2.90000000	5.09719500	60.08243000	28.42027000
3.09999999	3.34522600	60.08243000	28.42027000
3.29999998	0.47736220	60.08243000	28.42027000
3.49999997	-3.02657500	60.08243000	28.42027000
3.69999996	-6.05315000	60.08243000	28.42027000
3.89999994	-7.80511800	60.08243000	28.46333000
4.09999993	-7.64579200	60.08243000	28.83858000
4.29999992	-5.57517200	60.08243000	29.58292000
4.49999991	-1.75196900	60.08243000	29.95817000
4.69999990	2.70792300	60.08243000	29.95817000
4.89999989	6.69045300	60.08243000	29.58292000
5.09999987	9.07972400	60.08243000	28.83858000
5.29999986	9.23905000	60.08243000	28.46333000
5.49999985	7.16781500	60.08243000	28.42027000
5.69999984	3.02657500	60.08243000	28.42027000
5.89999983	-1.59264300	60.08243000	28.42027000
6.09999981	-6.05315000	60.08243000	28.42027000
6.29999980	-8.76107300	60.08243000	28.42027000
6.49999979	-9.39837600	60.08243000	28.42027000
6.69999978	-7.64579200	60.08243000	28.42027000
6.89999977	-3.98191400	60.08243000	28.42027000
7.09999975	0.31803640	60.08243000	28.42027000
7.29999974	4.30056600	60.08243000	28.42027000
7.49999973	7.00848900	60.08243000	28.42027000
7.69999972	7.64579200	60.08243000	28.42027000
7.89999971	6.53112700	60.08243000	28.42027000
8.09999970	3.98191400	60.08243000	28.42027000
8.29999968	0.63668800	60.08243000	28.42027000
8.49999967	-2.38927200	60.08243000	28.42027000
8.69999966	-4.45989200	60.08243000	28.42027000
8.89999965	-5.25652100	60.08243000	28.42027000
9.09999964	-4.61921700	60.08243000	28.42027000
9.29999962	-3.02657500	60.08243000	28.42027000
9.49999961	-0.95533960	60.08243000	28.42027000
9.69999960	0.79601380	60.08243000	28.42027000
9.89999959	2.07062000	60.08243000	28.42027000
10.09999958	2.54859700	60.08243000	28.42027000
10.29999956	2.38927200	60.08243000	28.42027000
10.49999955	1.59264300	60.08243000	28.42027000
10.69999954	0.63668800	60.08243000	28.42027000
10.89999953	-0.15871060	60.08243000	28.42027000
11.09999952	-0.63668800	60.08243000	28.42027000
11.29999951	-0.95533960	60.08243000	28.42027000
11.49999949	-0.95533960	60.08243000	28.42027000
11.69999948	-0.79601380	60.08243000	28.42027000
11.89999947	-0.47736220	60.08243000	28.42027000
12.09999946	-0.15871060	60.08243000	28.42027000
12.29999945	-0.15871060	60.08243000	28.42027000
12.49999943	-0.15871060	60.08243000	28.42027000
12.69999942	0.00000000	60.08243000	28.42027000
12.89999941	0.00000000	60.08243000	28.42027000
13.09999940	0.00000000	60.08243000	28.42027000
13.29999939	0.00000000	60.08243000	28.42027000
13.49999937	0.00000000	60.08243000	28.42027000
13.69999936	0.00000000	60.08243000	28.42027000
13.89999935	0.00000000	60.08243000	28.42027000
14.09999934	-0.15871060	60.08243000	28.42027000
14.29999933	-0.15871060	60.08243000	28.42027000
14.49999932	-0.15871060	60.08243000	28.42027000
14.69999930	0.00000000	60.08243000	28.42027000
14.89999929	0.00000000	60.12549000	28.37721000
15.09999928	0.00000000	60.41461000	28.04503000
15.29999927	0.00000000	60.45152000	27.67593000
15.49999926	0.00000000	59.71333000	28.04503000
15.69999924	0.00000000	59.75024000	28.37721000
15.89999923	0.00000000	60.03937000	28.42027000
16.09999922	0.00000000	60.08243000	28.42027000
16.29999921	0.00000000	60.08243000	28.42027000
16.49999920	-0.15871060	60.12549000	28.46333000
16.69999919	-0.15871060	60.50073000	28.79552000
16.89999917	0.00000000	61.24508000	29.16461000
17.09999916	0.00000000	61.62032000	28.79552000
17.29999915	0.00000000	61.70644000	28.46333000
17.49999914	0.00000000	62.03863000	28.42027000
17.69999913	0.00000000	62.40772000	28.42027000
17.89999911	0.00000000	61.99557000	28.42027000
18.09999910	0.00000000	61.24508000	28.46333000
18.29999909	0.00000000	60.03937000	28.79552000
18.49999908	0.00000000	58.50147000	29.16461000
18.69999907	0.00000000	56.96358000	28.79552000
18.89999905	0.00000000	55.80708000	28.46333000
19.09999904	0.00000000	55.47490000	28.42027000
19.29999903	0.00000000	56.26845000	28.42027000
19.49999902	0.00000000	58.63681000	28.46333000
19.69999901	0.00000000	62.13090000	28.79552000
19.89999900	0.00000000	66.36318000	29.16461000
20.09999898	0.00000000	70.17716000	28.79552000
20.29999897	0.00000000	72.09030000	28.46333000
20.49999896	0.00000000	71.71505000	28.42027000
20.69999895	0.00000000	68.88533000	28.42027000
20.89999894	0.00000000	63.43504000	28.42027000
21.09999892	0.00000000	55.71481000	28.42027000
21.29999891	0.00000000	48.03149000	28.42027000
21.49999890	0.00000000	42.26747000	28.42027000
21.69999889	0.00000000	39.98523000	28.42027000
21.89999888	0.00000000	42.40280000	28.42027000
22.09999886	0.00000000	49.38484000	28.42027000
22.29999885	0.00000000	60.31004000	28.42027000
22.49999884	0.00000000	73.01919000	28.42027000
22.69999883	0.00000000	84.92863000	28.42027000
22.89999882	0.00000000	92.14443000	28.42027000
23.09999881	0.00000000	92.18749000	28.46333000
23.29999879	0.00000000	85.16855000	28.83858000
23.49999878	0.00000000	72.27484000	29.58292000
23.69999877	0.00000000	54.87819000	29.95817000
23.89999876	0.00000000	36.82332000	30.00123000
24.09999875	0.00000000	23.36983000	30.00123000
24.29999873	0.00000000	17.97490000	29.95817000
24.49999872	0.00000000	22.29946000	29.49065000
24.69999871	0.00000000	35.83907000	27.95891000
24.89999870	0.00000000	55.98548000	25.68282000
25.09999869	0.00000000	78.37106000	23.77584000
25.29999867	0.00000000	98.00688000	22.61319000
25.49999866	0.00000000	109.54720000	22.61319000
25.69999865	0.00000000	109.92250000	23.77584000
25.89999864	0.00000000	99.07726000	25.77510000
26.09999863	0.00000000	78.98006000	28.88779000
26.29999862	0.00000000	54.26919000	32.73868000
26.49999860	0.00000000	30.72096000	36.22662000
26.69999859	0.00000000	13.74262000	38.87795000
26.89999858	0.00000000	7.55413300	39.57308000
27.09999857	0.00000000	13.32431000	37.20472000
27.29999856	0.00000000	29.51525000	32.18504000
27.49999854	0.00000000	52.31299000	25.21530000
27.69999853	0.00000000	76.27953000	17.87647000
27.89999852	0.00000000	96.41978000	11.69414000
28.09999851	0.00000000	108.33540000	7.92937900
28.29999850	0.00000000	109.17200000	8.39074700
28.49999848	0.00000000	98.84349000	13.82874000
28.69999847	0.00000000	81.11466000	23.12377000
28.89999846	0.00000000	60.17470000	34.73794000
29.09999845	0.00000000	40.07751000	46.30905000
29.29999844	0.00000000	25.37524000	55.13656000
29.49999843	0.00000000	19.09449000	58.90133000
29.69999841	0.00000000	21.74582000	55.78863000
29.89999840	0.00000000	32.21579000	46.12450000
30.09999839	0.00000000	48.40674000	32.22810000
30.29999838	0.00000000	66.55389000	16.71383000
30.49999837	0.00000000	82.04970000	2.86048200
30.69999835	0.00000000	92.18749000	-6.37303100
30.89999834	0.00000000	95.30634000	-8.23695900
31.09999833	0.00000000	91.11713000	-2.05462600
31.29999832	0.00000000	81.11466000	11.13435000
31.49999831	0.00000000	67.99335000	28.83858000
31.69999829	0.00000000	54.77977000	47.00418000
31.89999828	0.00000000	43.89148000	61.26968000
32.09999827	0.00000000	36.91560000	69.06988000
32.29999826	0.00000000	35.33464000	68.61465000
32.49999825	0.00000000	39.14862000	60.10703000
32.69999824	0.00000000	46.91806000	44.68504000
32.89999822	0.00000000	57.38804000	26.19340000
33.09999821	0.00000000	68.55315000	9.13508800
33.29999820	0.00000000	77.39911000	-3.67864200
33.49999819	0.00000000	81.71751000	-9.81176100
33.69999818	0.00000000	80.97932000	-7.90477300
33.89999816	0.00000000	75.99655000	1.75319900
34.09999815	0.00000000	67.90108000	16.80610000
34.29999814	0.00000000	59.05511000	34.18430000
34.49999813	0.00000000	51.70398000	50.02460000
34.69999812	0.00000000	47.42864000	60.85137000
34.89999810	0.00000000	47.01033000	64.70840000
35.09999809	0.00000000	50.03691000	60.48228000
35.29999808	0.00000000	55.43184000	49.37254000
35.49999807	0.00000000	61.62032000	34.69488000
35.69999806	0.00000000	67.39050000	19.63582000
35.89999805	0.00000000	71.25368000	7.28346400
36.09999803	0.00000000	72.00418000	0.72588580
36.29999802	0.00000000	69.75885000	1.05807100
36.49999801	0.00000000	65.11441000	7.97859100
36.69999800	0.00000000	59.79945000	19.45743000
36.89999799	0.00000000	55.10580000	32.18504000
37.09999797	0.00000000	52.44832000	42.96875000
37.29999796	0.00000000	52.03617000	49.51402000
37.49999795	0.00000000	54.35531000	49.88927000
37.69999794	0.00000000	58.54454000	44.21752000
37.89999793	0.00000000	63.20127000	34.64567000
38.09999791	0.00000000	67.43970000	24.28026000
38.29999790	0.00000000	70.13410000	15.82800000
38.49999789	0.00000000	70.55856000	11.64493000
38.69999788	0.00000000	69.02066000	13.13361000
38.89999787	0.00000000	65.89567000	19.63582000
39.09999786	0.00000000	61.66338000	28.79552000
39.29999784	0.00000000	57.43110000	37.99213000
39.49999783	0.00000000	54.26919000	44.13140000
39.69999782	0.00000000	52.35605000	45.66314000
39.89999781	0.00000000	51.99311000	42.17519000
40.09999780	0.00000000	53.89394000	34.14124000
40.29999778	0.00000000	56.96358000	24.19414000
40.49999777	0.00000000	60.50073000	15.36048000
40.69999776	0.00000000	64.40699000	9.97170200
40.89999775	0.00000000	67.85802000	9.64566800
41.09999774	0.00000000	70.18331000	14.62229000
41.29999772	0.00000000	70.55856000	23.81890000
41.49999771	0.00000000	69.06373000	34.14124000
41.69999770	0.00000000	66.32012000	42.63656000
41.89999769	0.00000000	62.82603000	47.28715000
42.09999768	0.00000000	58.96899000	47.28715000
42.29999767	0.00000000	55.89320000	42.68578000
42.49999765	0.00000000	54.26919000	34.64567000
42.69999764	0.00000000	53.89394000	25.77510000
42.89999763	0.00000000	54.64444000	18.05487000
43.09999762	0.00000000	56.58833000	13.08440000
43.29999761	0.00000000	58.87672000	12.66609000
43.49999759	0.00000000	61.24508000	16.38164000
43.69999758	0.00000000	63.15207000	22.14567000
43.89999757	0.00000000	64.35777000	28.37721000
44.09999756	0.00000000	64.78223000	34.18430000
44.29999755	0.00000000	64.82529000	38.41043000
44.49999753	0.00000000	64.82529000	39.94832000
44.69999752	0.00000000	64.82529000	38.45964000
44.89999751	0.00000000	64.82529000	34.69488000
45.09999750	0.00000000	64.78223000	30.46260000
45.29999749	0.00000000	64.35777000	26.93159000
45.49999748	0.00000000	63.10900000	24.19414000
45.69999746	0.00000000	60.77756000	22.65625000
45.89999745	0.00000000	57.29576000	22.65625000
46.09999744	0.00000000	53.89394000	24.14493000
46.29999743	0.00000000	51.52559000	26.46407000
46.49999742	0.00000000	50.82431000	28.79552000
46.69999740	0.00000000	51.99311000	31.15772000
46.89999739	0.00000000	55.56717000	33.02165000
47.09999738	0.00000000	60.96825000	33.80905000
47.29999737	0.00000000	67.57505000	33.06471000
47.49999736	0.00000000	73.67126000	31.53297000
47.69999734	0.00000000	77.52829000	29.58292000
47.89999733	0.00000000	77.95275000	27.30684000
48.09999732	0.00000000	75.16608000	25.68282000
48.29999731	0.00000000	69.29749000	24.51402000
48.49999730	0.00000000	60.45767000	23.44980000
48.69999729	0.00000000	51.61786000	24.28026000
48.89999727	0.00000000	45.05413000	26.88853000
49.09999726	0.00000000	41.99065000	30.00123000
49.29999725	0.00000000	43.98376000	33.11393000
49.49999724	0.00000000	50.45521000	35.75910000
49.69999723	0.00000000	59.75639000	36.87254000
49.89999721	0.00000000	69.39591000	35.75910000
50.09999720	0.00000000	77.48523000	33.06471000
50.29999719	0.00000000	81.71751000	29.58292000
50.49999718	0.00000000	80.97932000	25.72589000
50.69999717	0.00000000	75.94734000	22.65625000
50.89999715	0.00000000	67.48277000	21.08145000
51.09999714	0.00000000	57.89862000	21.12451000
51.29999713	0.00000000	50.17224000	23.07455000
51.49999712	0.00000000	45.89075000	26.93159000
51.69999711	0.00000000	45.89075000	31.48376000
51.89999710	0.00000000	50.12303000	35.38385000
52.09999708	0.00000000	57.38804000	37.71530000
52.29999707	0.00000000	65.47736000	38.50270000
52.49999706	0.00000000	72.04723000	37.29700000
52.69999705	0.00000000	75.90427000	34.22736000
52.89999704	0.00000000	75.86122000	30.00123000
53.09999702	0.00000000	71.67200000	25.77510000
53.29999701	0.00000000	64.82529000	22.70546000
53.49999700	0.00000000	57.89247000	21.49975000
53.69999699	0.00000000	52.86663000	22.28100000
53.89999698	0.00000000	50.54749000	24.56324000
54.09999696	0.00000000	51.70398000	28.00197000
54.29999695	0.00000000	55.89320000	31.02239000
54.49999694	0.00000000	61.62032000	32.64640000
54.69999693	0.00000000	67.01525000	33.02165000
54.89999692	0.00000000	70.50935000	32.27731000
55.09999691	0.00000000	71.67200000	30.37647000
55.29999689	0.00000000	70.13410000	28.51255000
55.49999688	0.00000000	66.32012000	27.34990000
55.69999687	0.00000000	61.66338000	27.34990000
55.89999686	0.00000000	57.05585000	28.46333000
56.09999685	0.00000000	53.66018000	30.00123000
56.29999683	0.00000000	53.28493000	31.53297000
56.49999682	0.00000000	55.85014000	32.60334000
56.69999681	0.00000000	59.66412000	32.18504000
56.89999680	0.00000000	63.20127000	29.90895000
57.09999679	0.00000000	66.32012000	26.83932000
57.29999677	0.00000000	68.59621000	23.72662000
57.49999676	0.00000000	68.97145000	21.08145000
57.69999675	0.00000000	67.48277000	20.01107000
57.89999674	0.00000000	64.78223000	21.59203000
58.09999673	0.00000000	61.70644000	25.77510000
58.29999672	0.00000000	59.01205000	31.15772000
58.49999670	0.00000000	57.47416000	36.17741000
58.69999669	0.00000000	57.43110000	39.99138000
58.89999668	0.00000000	58.59375000	41.10482000
59.09999667	0.00000000	60.50073000	38.78568000
59.29999666	0.00000000	62.77681000	33.80905000
59.49999664	0.00000000	64.31471000	27.21457000
59.69999663	0.00000000	64.73302000	20.70620000
59.89999662	0.00000000	64.35777000	15.69267000
60.09999661	0.00000000	63.20127000	13.82874000
60.29999660	0.00000000	61.70644000	15.73573000
60.49999658	0.00000000	60.54995000	21.12451000
60.69999657	0.00000000	60.17470000	28.42027000
60.89999656	0.00000000	60.54995000	35.80217000
61.09999655	0.00000000	61.70644000	41.94144000
61.29999654	0.00000000	63.20127000	45.38017000
61.49999653	0.00000000	64.40699000	44.59276000
61.69999651	0.00000000	65.15748000	39.99138000
61.89999650	0.00000000	65.47736000	32.64640000
62.09999649	0.00000000	64.31471000	24.19414000
62.29999648	0.00000000	62.08169000	16.89222000
62.49999647	0.00000000	60.12549000	12.66609000
62.69999645	0.00000000	58.59375000	12.62303000
62.89999644	0.00000000	57.80634000	16.47392000
63.09999643	0.00000000	58.21850000	23.03149000
63.29999642	0.00000000	59.38730000	31.11466000
63.49999641	0.00000000	61.70644000	38.45349000
63.69999639	0.00000000	64.35777000	43.47933000
63.89999638	0.00000000	66.32012000	45.42323000
64.09999637	0.00000000	67.48277000	43.47933000
64.29999636	0.00000000	67.43970000	38.54576000
64.49999635	0.00000000	65.94488000	31.95128000
64.69999634	0.00000000	63.61958000	25.39985000
64.89999632	0.00000000	61.33120000	19.96186000
65.09999631	0.00000000	59.33809000	16.84916000
65.29999630	0.00000000	58.21850000	16.43085000
65.49999629	0.00000000	57.84941000	18.38090000
65.69999628	0.00000000	59.01205000	22.61319000
65.89999626	0.00000000	61.24508000	27.95275000
66.09999625	0.00000000	63.20127000	32.64640000
66.29999624	0.00000000	64.73302000	36.17741000
66.49999623	0.00000000	65.52042000	38.54576000
66.69999622	0.00000000	65.10827000	39.29626000
66.89999620	0.00000000	63.98867000	38.58883000
67.09999619	0.00000000	62.08169000	36.60187000
67.29999618	0.00000000	60.59301000	33.90133000
67.49999617	0.00000000	60.17470000	30.37647000
67.69999616	0.00000000	60.59301000	26.93159000
67.89999615	0.00000000	62.13090000	24.14493000
68.09999613	0.00000000	64.40699000	22.15182000
68.29999612	0.00000000	66.32012000	20.61393000
68.49999611	0.00000000	67.48277000	19.91880000
68.69999610	0.00000000	67.43970000	21.12451000
68.89999609	0.00000000	65.85260000	24.19414000
69.09999607	0.00000000	62.77681000	28.46333000
69.29999606	0.00000000	58.96899000	33.11393000
69.49999605	0.00000000	55.89320000	37.34006000
69.69999604	0.00000000	54.35531000	40.03444000
69.89999603	0.00000000	54.77977000	40.45890000
70.09999601	0.00000000	57.43110000	38.87795000
70.29999600	0.00000000	61.33120000	35.38385000
70.49999599	0.00000000	65.61884000	30.37647000
70.69999598	0.00000000	70.22637000	25.35679000
70.89999597	0.00000000	73.25295000	21.08145000
71.09999596	0.00000000	73.67126000	18.38706000
71.29999594	0.00000000	71.71505000	18.01181000
71.49999593	0.00000000	67.43970000	19.91880000
71.69999592	0.00000000	61.71259000	23.77584000
71.89999591	0.00000000	56.26845000	28.37721000
72.09999590	0.00000000	52.40526000	32.64640000
72.29999588	0.00000000	50.49828000	35.71604000
72.49999587	0.00000000	51.66092000	36.92175000
72.69999586	0.00000000	55.47490000	36.13435000
72.89999585	0.00000000	60.50073000	33.85211000
73.09999584	0.00000000	65.94488000	30.41954000
73.29999582	0.00000000	70.55241000	27.39296000
73.49999581	0.00000000	73.29601000	25.81816000
73.69999580	0.00000000	73.67126000	25.72589000
73.89999579	0.00000000	71.76427000	26.51329000
74.09999578	0.00000000	67.90108000	27.63287000
74.29999577	0.00000000	63.29355000	29.16461000
74.49999575	0.00000000	59.01205000	29.86589000
74.69999574	0.00000000	55.93627000	29.53371000
74.89999573	0.00000000	54.73056000	28.32800000
75.09999572	0.00000000	55.47490000	26.46407000
75.29999571	0.00000000	57.38804000	24.61245000
75.49999569	0.00000000	60.12549000	24.28026000
75.69999568	0.00000000	63.20127000	25.77510000
75.89999567	0.00000000	65.85260000	28.46333000
76.09999566	0.00000000	67.05831000	31.57603000
76.29999565	0.00000000	66.73843000	34.64567000
76.49999563	0.00000000	65.98794000	36.92175000
76.69999562	0.00000000	64.82529000	37.29700000
76.89999561	0.00000000	63.71186000	35.71604000
77.09999560	0.00000000	63.28740000	32.22810000
77.29999559	0.00000000	63.24434000	27.25763000
77.49999558	0.00000000	63.24434000	22.65625000
77.69999556	0.00000000	63.24434000	19.50049000
77.89999555	0.00000000	63.20127000	18.01181000
78.09999554	0.00000000	62.77681000	18.84842000
78.29999553	0.00000000	61.66338000	22.69931000
78.49999552	0.00000000	60.54995000	28.42027000
78.69999550	0.00000000	60.12549000	34.22736000
78.89999549	0.00000000	60.12549000	38.92101000
79.09999548	0.00000000	60.59301000	41.99065000
79.29999547	0.00000000	62.17396000	42.72884000
79.49999546	0.00000000	64.78223000	40.40969000
79.69999544	0.00000000	67.10752000	35.85138000
79.89999543	0.00000000	68.27633000	30.41954000
80.09999542	0.00000000	68.68848000	25.39985000
80.29999541	0.00000000	67.85802000	21.49975000
80.49999540	0.00000000	65.94488000	19.54355000
80.69999539	0.00000000	63.24434000	19.54355000
80.89999537	0.00000000	60.54995000	21.45669000
81.09999536	0.00000000	58.63681000	24.93233000
81.29999535	0.00000000	57.84941000	28.83858000
81.49999534	0.00000000	58.63681000	33.11393000
81.69999533	0.00000000	60.54995000	36.92175000
81.89999531	0.00000000	63.24434000	38.92101000
82.09999530	0.00000000	65.94488000	39.38238000
82.29999529	0.00000000	67.85802000	38.92101000
82.49999528	0.00000000	68.64542000	36.96481000
82.69999527	0.00000000	67.90108000	33.48917000
82.89999525	0.00000000	66.40624000	29.62598000
83.09999524	0.00000000	64.82529000	25.72589000
83.29999523	0.00000000	63.28740000	22.65625000
83.49999522	0.00000000	62.08169000	21.03838000
83.69999521	0.00000000	61.33120000	20.66314000
83.89999520	0.00000000	60.91904000	21.45669000
84.09999518	0.00000000	61.33120000	23.81890000
84.29999517	0.00000000	62.03863000	27.30684000
84.49999516	0.00000000	62.82603000	31.57603000
84.69999515	0.00000000	63.20127000	35.80217000
84.89999514	0.00000000	63.24434000	38.87795000
85.09999512	0.00000000	63.28740000	40.03444000
85.29999511	0.00000000	63.66264000	38.87795000
85.49999510	0.00000000	64.40699000	35.75910000
85.69999509	0.00000000	64.78223000	31.11466000
85.89999508	0.00000000	64.86835000	25.72589000
86.09999506	0.00000000	65.20053000	21.12451000
86.29999505	0.00000000	65.52042000	18.38706000
86.49999504	0.00000000	64.73302000	18.01181000
86.69999503	0.00000000	63.24434000	19.91880000
86.89999502	0.00000000	61.66338000	23.81890000
87.09999501	0.00000000	60.12549000	28.79552000
87.29999499	0.00000000	59.01205000	33.80905000
87.49999498	0.00000000	59.01205000	37.29700000
87.69999497	0.00000000	60.12549000	38.82874000
87.89999496	0.00000000	61.70644000	38.03519000
88.09999495	0.00000000	63.61958000	34.60261000
88.29999493	0.00000000	65.56963000	30.00123000
88.49999492	0.00000000	66.69537000	25.35679000
88.69999491	0.00000000	67.10752000	21.49975000
88.89999490	0.00000000	66.36318000	19.59276000
89.09999489	0.00000000	65.20053000	19.96186000
89.29999487	0.00000000	63.98867000	22.65625000
89.49999486	0.00000000	62.08169000	26.93159000
89.69999485	0.00000000	60.59301000	31.90822000
89.89999484	0.00000000	60.17470000	36.50344000
90.09999483	0.00000000	60.54995000	38.78568000
90.29999482	0.00000000	61.70644000	38.45349000
90.49999480	0.00000000	63.20127000	35.71604000
90.69999479	0.00000000	64.40699000	31.15772000
90.89999478	0.00000000	65.20053000	26.14419000
91.09999477	0.00000000	65.93873000	22.33022000
91.29999476	0.00000000	65.93873000	20.38632000
91.49999474	0.00000000	65.24360000	21.16757000
91.69999473	0.00000000	64.82529000	24.23720000
91.89999472	0.00000000	64.40699000	28.83858000
92.09999471	0.00000000	63.66264000	33.80905000
92.29999470	0.00000000	63.28740000	37.25394000
92.49999468	0.00000000	63.24434000	38.45349000
92.69999467	0.00000000	63.24434000	37.29700000
92.89999466	0.00000000	63.20127000	34.22736000
93.09999465	0.00000000	62.82603000	30.00123000
93.29999464	0.00000000	62.08169000	25.77510000
93.49999463	0.00000000	61.70644000	22.70546000
93.69999461	0.00000000	61.66338000	21.58587000
93.89999460	0.00000000	61.75566000	23.12377000
94.09999459	0.00000000	62.54921000	26.93159000
94.29999458	0.00000000	64.45004000	31.48376000
94.49999457	0.00000000	66.36318000	35.34079000
94.69999455	0.00000000	67.94415000	37.24778000
94.89999454	0.00000000	69.06373000	36.92175000
95.09999453	0.00000000	69.02066000	34.60261000
95.29999452	0.00000000	67.48277000	31.15772000
95.49999451	0.00000000	64.78223000	27.30684000
95.69999449	0.00000000	61.70644000	24.23720000
95.89999448	0.00000000	58.96899000	22.69931000
96.09999447	0.00000000	57.05585000	23.07455000
96.29999446	0.00000000	56.31151000	25.39985000
96.49999445	0.00000000	57.47416000	28.79552000
96.69999444	0.00000000	60.17470000	32.27731000
96.89999442	0.00000000	63.66264000	34.55955000
97.09999441	0.00000000	67.57505000	35.38385000
97.29999440	0.00000000	70.97687000	34.64567000
97.49999439	0.00000000	72.96998000	33.11393000
97.69999438	0.00000000	72.93307000	31.15772000
97.89999436	0.00000000	71.38902000	28.83858000
98.09999435	0.00000000	67.90108000	26.97465000
98.29999434	0.00000000	63.71186000	26.14419000
98.49999433	0.00000000	60.12549000	26.55635000
98.69999432	0.00000000	57.05585000	27.67593000
98.89999430	0.00000000	55.15502000	29.58292000
99.09999429	0.00000000	55.56717000	31.06545000
99.29999428	0.00000000	57.80634000	31.53297000
99.49999427	0.00000000	61.28814000	31.53297000
99.69999426	0.00000000	64.78223000	31.15772000
99.89999425	0.00000000	67.94415000	30.41954000
100.09999423	0.00000000	70.60162000	30.09350000
100.29999422	0.00000000	71.76427000	30.41954000
100.49999421	0.00000000	71.01993000	31.15772000
100.69999420	0.00000000	69.10678000	31.48376000
100.89999419	0.00000000	66.36318000	31.15772000
101.09999417	0.00000000	63.28740000	30.37647000
101.29999416	0.00000000	60.54995000	29.58292000
101.49999415	0.00000000	58.63681000	28.37721000
101.69999414	0.00000000	57.84941000	26.88853000
101.89999413	0.00000000	58.59375000	25.77510000
102.09999411	0.00000000	60.12549000	25.77510000
102.29999410	0.00000000	62.08169000	26.93159000
102.49999409	0.00000000	64.45004000	28.83858000
102.69999408	0.00000000	66.73843000	31.15772000
102.89999407	0.00000000	68.68848000	33.06471000
103.09999406	0.00000000	69.43897000	34.27042000
103.29999404	0.00000000	69.06373000	34.60261000
103.49999403	0.00000000	67.52583000	33.80905000
103.69999402	0.00000000	65.24360000	31.48991000
103.89999401	0.00000000	63.28740000	28.46333000
104.09999400	0.00000000	61.70644000	25.77510000
104.29999398	0.00000000	60.54995000	24.19414000
104.49999397	0.00000000	60.17470000	23.77584000
104.69999396	0.00000000	60.54995000	24.23720000
104.89999395	0.00000000	61.70644000	26.14419000
105.09999394	0.00000000	63.24434000	29.20767000
105.29999392	0.00000000	64.78223000	31.86516000
105.49999391	0.00000000	65.93873000	33.80905000
105.69999390	0.00000000	66.31397000	34.18430000
105.89999389	0.00000000	65.98794000	33.11393000
106.09999388	0.00000000	65.20053000	31.53297000
106.29999387	0.00000000	64.40699000	29.58292000
106.49999385	0.00000000	63.24434000	27.30684000
106.69999384	0.00000000	62.17396000	25.81816000
106.89999383	0.00000000	62.17396000	25.77510000
107.09999382	0.00000000	63.24434000	26.88853000
107.29999381	0.00000000	64.40699000	28.46333000
107.49999379	0.00000000	65.20053000	30.37647000
107.69999378	0.00000000	65.98794000	32.27731000
107.89999377	0.00000000	66.31397000	33.02165000
108.09999376	0.00000000	65.93873000	32.68946000
108.29999375	0.00000000	64.82529000	31.53297000
108.49999374	0.00000000	63.66264000	30.00123000
108.69999372	0.00000000	62.86909000	28.46333000
108.89999371	0.00000000	62.08169000	27.30684000
109.09999370	0.00000000	61.75566000	26.93159000
109.29999369	0.00000000	62.13090000	27.34990000
109.49999368	0.00000000	63.28740000	28.88164000
109.69999366	0.00000000	64.82529000	31.15772000
109.89999365	0.00000000	66.36318000	33.02165000
110.09999364	0.00000000	67.48277000	33.85211000
110.29999363	0.00000000	67.48277000	33.48917000
110.49999362	0.00000000	66.40624000	32.73868000
110.69999360	0.00000000	65.24360000	31.53297000
110.89999359	0.00000000	64.40699000	30.00123000
111.09999358	0.00000000	63.24434000	28.46333000
111.29999357	0.00000000	62.17396000	27.30684000
111.49999356	0.00000000	62.13090000	26.93159000
111.69999355	0.00000000	62.86909000	27.30684000
111.89999353	0.00000000	63.66264000	28.42027000
112.09999352	0.00000000	64.82529000	29.58292000
112.29999351	0.00000000	65.93873000	30.37647000
112.49999350	0.00000000	66.36318000	31.15772000
112.69999349	0.00000000	66.36318000	31.53297000
112.89999347	0.00000000	65.98794000	31.57603000
113.09999346	0.00000000	65.24360000	31.53297000
113.29999345	0.00000000	64.86835000	31.15772000
113.49999344	0.00000000	64.82529000	30.37647000
113.69999343	0.00000000	64.78223000	29.62598000
113.89999341	0.00000000	64.45004000	28.88779000
114.09999340	0.00000000	64.08095000	28.88779000
114.29999339	0.00000000	64.45004000	29.53371000
114.49999338	0.00000000	64.78223000	29.53371000
114.69999337	0.00000000	64.82529000	28.83858000
114.89999336	0.00000000	64.82529000	28.46333000
115.09999334	0.00000000	64.82529000	28.42027000
115.29999333	0.00000000	64.82529000	28.42027000
115.49999332	0.00000000	64.82529000	28.46333000
115.69999331	0.00000000	64.82529000	28.83858000
115.89999330	0.00000000	64.82529000	29.62598000
116.09999328	0.00000000	64.82529000	30.37647000
116.29999327	0.00000000	64.78223000	31.15772000
116.49999326	0.00000000	64.40699000	31.53297000
116.69999325	0.00000000	63.66264000	31.57603000
116.89999324	0.00000000	63.33661000	31.53297000
117.09999322	0.00000000	63.66264000	31.15772000
117.29999321	0.00000000	64.45004000	30.37647000
117.49999320	0.00000000	65.20053000	29.62598000
117.69999319	0.00000000	65.98794000	28.83858000
117.89999318	0.00000000	66.40624000	28.42027000
118.09999317	0.00000000	66.78149000	28.04503000
118.29999315	0.00000000	67.10752000	27.67593000
118.49999314	0.00000000	66.32012000	28.08809000
118.69999313	0.00000000	64.86835000	28.79552000
118.89999312	0.00000000	63.66264000	29.58292000
119.09999311	0.00000000	62.86909000	30.00123000
119.29999309	0.00000000	62.08169000	30.41954000
119.49999308	0.00000000	61.75566000	31.15772000
119.69999307	0.00000000	62.13090000	31.48376000
119.89999306	0.00000000	63.28740000	31.15772000
120.09999305	0.00000000	64.78223000	30.41954000
120.29999303	0.00000000	65.98794000	30.04429000
120.49999302	0.00000000	66.78149000	29.95817000
120.69999301	0.00000000	67.52583000	29.58292000
120.89999300	0.00000000	67.52583000	28.83858000
121.09999299	0.00000000	66.78149000	28.46333000
121.29999298	0.00000000	65.98794000	28.42027000
121.49999296	0.00000000	64.82529000	28.42027000
121.69999295	0.00000000	63.66264000	28.42027000
121.89999294	0.00000000	62.86909000	28.46333000
122.09999293	0.00000000	62.08169000	28.83858000
122.29999292	0.00000000	61.75566000	29.62598000
122.49999290	0.00000000	62.13090000	30.37647000
122.69999289	0.00000000	63.24434000	31.15772000
122.89999288	0.00000000	64.40699000	31.53297000
123.09999287	0.00000000	65.20053000	31.57603000
123.29999286	0.00000000	66.03100000	31.57603000
123.49999284	0.00000000	66.78149000	31.53297000
123.69999283	0.00000000	67.52583000	31.15772000
123.89999282	0.00000000	67.52583000	30.37647000
124.09999281	0.00000000	66.78149000	29.62598000
124.29999280	0.00000000	66.03100000	28.83858000
124.49999279	0.00000000	65.20053000	28.46333000
124.69999277	0.00000000	64.45004000	28.46333000
124.89999276	0.00000000	63.66264000	28.83858000
125.09999275	0.00000000	63.28740000	29.58292000
125.29999274	0.00000000	63.24434000	30.00123000
125.49999273	0.00000000	63.28740000	30.41954000
125.69999271	0.00000000	63.66264000	31.15772000
125.89999270	0.00000000	64.45004000	31.53297000
126.09999269	0.00000000	65.24360000	31.57603000
126.29999268	0.00000000	66.40624000	31.57603000
126.49999267	0.00000000	67.52583000	31.53297000
126.69999265	0.00000000	67.90108000	31.15772000
126.89999264	0.00000000	67.57505000	30.41954000
127.09999263	0.00000000	66.78149000	30.04429000
127.29999262	0.00000000	65.98794000	30.00123000
127.49999261	0.00000000	64.82529000	30.00123000
127.69999260	0.00000000	63.71186000	30.00123000
127.89999258	0.00000000	63.28740000	30.00123000
128.09999257	0.00000000	63.28740000	30.04429000
128.29999256	0.00000000	63.66264000	30.41954000
128.49999255	0.00000000	64.45004000	31.15772000
128.69999254	0.00000000	65.24360000	31.53297000
128.89999252	0.00000000	66.40624000	31.57603000
129.09999251	0.00000000	67.52583000	31.57603000
129.29999250	0.00000000	67.90108000	31.53297000
129.49999249	0.00000000	67.52583000	31.15772000
129.69999248	0.00000000	66.40624000	30.41954000
129.89999246	0.00000000	65.29281000	30.04429000
130.09999245	0.00000000	64.82529000	29.95817000
130.29999244	0.00000000	64.40699000	29.62598000
130.49999243	0.00000000	63.71186000	29.30610000
130.69999242	0.00000000	63.71186000	30.04429000
130.89999241	0.00000000	64.45004000	31.11466000
131.09999239	0.00000000	65.20053000	31.53297000
131.29999238	0.00000000	66.03100000	31.53297000
131.49999237	0.00000000	66.73843000	31.11466000
131.69999236	0.00000000	67.15059000	30.00123000
131.89999235	0.00000000	66.78149000	28.88779000
132.09999233	0.00000000	66.40624000	28.46333000
132.29999232	0.00000000	65.98794000	28.42027000
132.49999231	0.00000000	65.24360000	28.42027000
132.69999230	0.00000000	64.86835000	28.46333000
132.89999229	0.00000000	64.82529000	28.83858000
133.09999227	0.00000000	64.82529000	29.62598000
133.29999226	0.00000000	64.82529000	30.37647000
133.49999225	0.00000000	64.82529000	31.15772000
133.69999224	0.00000000	64.86835000	31.53297000
133.89999223	0.00000000	65.20053000	31.53297000
134.09999222	0.00000000	65.56963000	31.15772000
134.29999220	0.00000000	65.20053000	30.37647000
134.49999219	0.00000000	64.86835000	29.62598000
134.69999218	0.00000000	64.82529000	28.83858000
134.89999217	0.00000000	64.86835000	28.42027000
135.09999216	0.00000000	65.24360000	28.04503000
135.29999214	0.00000000	65.98794000	27.67593000
135.49999213	0.00000000	66.36318000	28.08809000
135.69999212	0.00000000	66.40624000	28.79552000
135.89999211	0.00000000	66.36318000	29.62598000
136.09999210	0.00000000	65.98794000	30.37647000
136.29999208	0.00000000	65.20053000	31.15772000
136.49999207	0.00000000	64.49311000	31.53297000
136.69999206	0.00000000	64.03790000	31.57603000
136.89999205	0.00000000	64.07480000	31.53297000
137.09999204	0.00000000	64.03790000	31.15772000
137.29999203	0.00000000	64.49311000	30.37647000
137.49999201	0.00000000	65.20053000	29.62598000
137.69999200	0.00000000	66.03100000	28.83858000
137.89999199	0.00000000	66.73843000	28.46333000
138.09999198	0.00000000	67.15059000	28.42027000
138.29999197	0.00000000	66.78149000	28.42027000
138.49999195	0.00000000	66.40624000	28.46333000
138.69999194	0.00000000	65.98794000	28.83858000
138.89999193	0.00000000	65.24360000	29.58292000
139.09999192	0.00000000	64.86835000	30.00123000
139.29999191	0.00000000	64.82529000	30.41954000
139.49999189	0.00000000	64.82529000	31.20078000
139.69999188	0.00000000	64.86835000	31.90822000
139.89999187	0.00000000	65.24360000	32.32037000
140.09999186	0.00000000	65.98794000	31.90822000
140.29999185	0.00000000	66.36318000	31.20078000
140.49999184	0.00000000	66.40624000	30.37647000
140.69999182	0.00000000	66.40624000	29.62598000
140.89999181	0.00000000	66.36318000	28.83858000
141.09999180	0.00000000	65.98794000	28.46333000
141.29999179	0.00000000	65.24360000	28.46333000
141.49999178	0.00000000	64.86835000	28.88779000
141.69999176	0.00000000	64.86835000	30.00123000
141.89999175	0.00000000	65.24360000	31.15772000
142.09999174	0.00000000	65.98794000	31.95128000
142.29999173	0.00000000	66.36318000	32.73868000
142.49999172	0.00000000	66.40624000	33.06471000
142.69999170	0.00000000	66.40624000	32.73868000
142.89999169	0.00000000	66.40624000	31.95128000
143.09999168	0.00000000	66.40624000	31.20078000
143.29999167	0.00000000	66.40624000	30.37647000
143.49999166	0.00000000	66.40624000	29.62598000
143.69999165	0.00000000	66.36318000	28.88779000
143.89999163	0.00000000	66.03100000	28.88779000
144.09999162	0.00000000	65.66190000	29.58292000
144.29999161	0.00000000	66.03100000	30.00123000
144.49999160	0.00000000	66.36318000	30.41954000
144.69999159	0.00000000	66.40624000	31.15772000
144.89999157	0.00000000	66.44931000	31.53297000
145.09999156	0.00000000	66.78149000	31.57603000
145.29999155	0.00000000	67.15059000	31.57603000
145.49999154	0.00000000	66.78149000	31.53297000
145.69999153	0.00000000	66.40624000	31.15772000
145.89999151	0.00000000	65.98794000	30.41954000
146.09999150	0.00000000	65.24360000	30.00123000
146.29999149	0.00000000	64.91756000	29.58292000
146.49999148	0.00000000	65.24360000	28.83858000
146.69999147	0.00000000	65.98794000	28.51255000
146.89999146	0.00000000	66.36318000	28.83858000
147.09999144	0.00000000	66.44931000	29.62598000
147.29999143	0.00000000	66.78149000	30.37647000
147.49999142	0.00000000	67.15059000	31.15772000
147.69999141	0.00000000	66.78149000	31.53297000
147.89999140	0.00000000	66.44931000	31.57603000
148.09999138	0.00000000	66.40624000	31.53297000
148.29999137	0.00000000	66.36318000	31.15772000
148.49999136	0.00000000	65.98794000	30.41954000
148.69999135	0.00000000	65.24360000	30.04429000
148.89999134	0.00000000	64.91756000	29.95817000
149.09999132	0.00000000	65.24360000	29.58292000
149.29999131	0.00000000	65.98794000	28.83858000
149.49999130	0.00000000	66.36318000	28.51255000
149.69999129	0.00000000	66.40624000	28.83858000
149.89999128	0.00000000	66.40624000	29.58292000
150.09999127	0.00000000	66.40624000	29.95817000
150.29999125	0.00000000	66.40624000	30.00123000
150.49999124	0.00000000	66.40624000	30.00123000
150.69999123	0.00000000	66.36318000	30.04429000
150.89999122	0.00000000	65.98794000	30.37647000
151.09999121	0.00000000	65.24360000	30.73942000
151.29999119	0.00000000	64.91756000	30.37647000
151.49999118	0.00000000	65.20053000	30.04429000
151.69999117	0.00000000	65.61269000	30.00123000
151.89999116	0.00000000	65.61884000	30.00123000
152.09999115	0.00000000	66.03100000	30.00123000
152.29999113	0.00000000	66.36318000	30.00123000
152.49999112	0.00000000	66.40624000	30.00123000
152.69999111	0.00000000	66.44931000	30.00123000
152.89999110	0.00000000	66.78149000	30.04429000
153.09999109	0.00000000	67.19365000	30.41954000
153.29999108	0.00000000	67.15674000	31.15772000
153.49999106	0.00000000	67.19365000	31.53297000
153.69999105	0.00000000	66.78149000	31.57603000
153.89999104	0.00000000	66.40624000	31.57603000
154.09999103	0.00000000	65.98794000	31.57603000
154.29999102	0.00000000	65.24360000	31.57603000
154.49999100	0.00000000	64.91756000	31.57603000
154.69999099	0.00000000	65.24360000	31.57603000
154.89999098	0.00000000	65.98794000	31.57603000
155.09999097	0.00000000	66.40624000	31.57603000
155.29999096	0.00000000	66.82455000	31.53297000
155.49999094	0.00000000	67.57505000	31.20078000
155.69999093	0.00000000	67.95029000	30.79478000
155.89999092	0.00000000	67.99335000	30.78248000
156.09999091	0.00000000	67.99335000	30.41954000
156.29999090	0.00000000	67.95029000	30.46260000
156.49999089	0.00000000	67.57505000	31.15772000
156.69999087	0.00000000	66.78149000	31.53297000
156.89999086	0.00000000	66.07406000	31.57603000
157.09999085	0.00000000	65.66190000	31.57603000
157.29999084	0.00000000	66.03100000	31.57603000
157.49999083	0.00000000	66.36318000	31.57603000
157.69999081	0.00000000	66.40624000	31.57603000
157.89999080	0.00000000	66.40624000	31.53297000
158.09999079	0.00000000	66.44931000	31.15772000
158.29999078	0.00000000	66.82455000	30.41954000
158.49999077	0.00000000	67.57505000	30.04429000
158.69999075	0.00000000	67.95029000	30.00123000
158.89999074	0.00000000	67.99335000	30.00123000
159.09999073	0.00000000	67.95029000	30.04429000
159.29999072	0.00000000	67.57505000	30.41954000
159.49999071	0.00000000	66.82455000	31.15772000
159.69999070	0.00000000	66.44931000	31.53297000
159.89999068	0.00000000	66.40624000	31.57603000
160.09999067	0.00000000	66.40624000	31.57603000
160.29999066	0.00000000	66.40624000	31.57603000
160.49999065	0.00000000	66.40624000	31.53297000
160.69999064	0.00000000	66.40624000	31.15772000
160.89999062	0.00000000	66.40624000	30.41954000
161.09999061	0.00000000	66.44931000	30.04429000
161.29999060	0.00000000	66.82455000	30.00123000
161.49999059	0.00000000	67.57505000	30.00123000
161.69999058	0.00000000	67.95029000	30.00123000
161.89999056	0.00000000	67.99335000	30.00123000
162.09999055	0.00000000	67.99335000	30.04429000
162.29999054	0.00000000	67.99335000	30.37647000
162.49999053	0.00000000	67.95029000	30.73942000
162.69999052	0.00000000	67.61810000	30.41954000
162.89999051	0.00000000	67.20596000	30.46260000
163.09999049	0.00000000	67.19365000	31.11466000
163.29999048	0.00000000	66.78149000	31.11466000
163.49999047	0.00000000	66.44931000	30.41954000
163.69999046	0.00000000	66.40624000	30.04429000
163.89999045	0.00000000	66.40624000	30.00123000
164.09999043	0.00000000	66.40624000	30.00123000
164.29999042	0.00000000	66.40624000	30.00123000
164.49999041	0.00000000	66.44931000	30.00123000
164.69999040	0.00000000	66.82455000	30.00123000
164.89999039	0.00000000	67.57505000	30.00123000
165.09999037	0.00000000	67.95029000	30.00123000
165.29999036	0.00000000	67.99335000	30.00123000
165.49999035	0.00000000	67.99335000	30.00123000
165.69999034	0.00000000	67.95029000	30.00123000
165.89999033	0.00000000	67.57505000	30.04429000
166.09999032	0.00000000	66.82455000	30.37647000
166.29999030	0.00000000	66.44931000	30.73942000
166.49999029	0.00000000	66.40624000	30.37647000
166.69999028	0.00000000	66.40624000	30.04429000
166.89999027	0.00000000	66.40624000	30.00123000
167.09999026	0.00000000	66.40624000	30.00123000
167.29999024	0.00000000	66.40624000	30.00123000
167.49999023	0.00000000	66.40624000	30.00123000
167.69999022	0.00000000	66.44931000	30.00123000
167.89999021	0.00000000	66.82455000	30.00123000
168.09999020	0.00000000	67.57505000	30.00123000
168.29999018	0.00000000	67.95029000	30.00123000
168.49999017	0.00000000	67.99335000	30.00123000
168.69999016	0.00000000	67.99335000	30.00123000
168.89999015	0.00000000	67.95029000	30.00123000
169.09999014	0.00000000	67.57505000	30.00123000
169.29999013	0.00000000	66.82455000	30.04429000
169.49999011	0.00000000	66.44931000	30.37647000
169.69999010	0.00000000	66.40624000	30.73942000
169.89999009	0.00000000	66.44931000	30.37647000
170.09999008	0.00000000	66.78149000	30.09350000
170.29999007	0.00000000	67.19365000	30.41954000
170.49999005	0.00000000	67.20596000	31.15772000
170.69999004	0.00000000	67.61810000	31.53297000
170.89999003	0.00000000	67.95029000	31.57603000
171.09999002	0.00000000	67.99335000	31.53297000
171.29999001	0.00000000	67.99335000	31.15772000
171.49998999	0.00000000	67.99335000	30.41954000
171.69998998	0.00000000	67.99335000	30.09350000
171.89998997	0.00000000	67.99335000	30.37647000
172.09998996	0.00000000	67.99335000	30.78248000
172.29998995	0.00000000	67.99335000	30.74557000
172.49998994	0.00000000	67.95029000	30.83169000
172.69998992	0.00000000	67.57505000	30.79478000
172.89998991	0.00000000	66.82455000	31.20078000
173.09998990	0.00000000	66.49852000	31.53297000
173.29998989	0.00000000	66.82455000	31.57603000
173.49998988	0.00000000	67.57505000	31.57603000
173.69998986	0.00000000	67.95029000	31.57603000
173.89998985	0.00000000	67.99335000	31.57603000
174.09998984	0.00000000	67.99335000	31.57603000
174.29998983	0.00000000	67.99335000	31.57603000
174.49998982	0.00000000	67.99335000	31.57603000
174.69998980	0.00000000	67.99335000	31.57603000
174.89998979	0.00000000	67.99335000	31.53297000
175.09998978	0.00000000	67.99335000	31.20078000
175.29998977	0.00000000	67.99335000	30.79478000
175.49998976	0.00000000	67.99335000	30.83169000
175.69998975	0.00000000	67.99335000	30.79478000
175.89998973	0.00000000	67.99335000	31.20078000
176.09998972	0.00000000	67.99335000	31.53297000
176.29998971	0.00000000	67.99335000	31.57603000
176.49998970	0.00000000	67.99335000	31.57603000
176.69998969	0.00000000	67.99335000	31.57603000
176.89998967	0.00000000	67.99335000	31.57603000
177.09998966	0.00000000	67.99335000	31.53297000
177.29998965	0.00000000	67.99335000	31.15772000
177.49998964	0.00000000	67.99335000	30.41954000
177.69998963	0.00000000	67.99335000	30.04429000
177.89998961	0.00000000	67.95029000	30.00123000
178.09998960	0.00000000	67.61810000	30.00123000
178.29998959	0.00000000	67.24901000	30.00123000
178.49998958	0.00000000	67.61810000	30.04429000
178.69998957	0.00000000	67.95029000	30.37647000
178.89998956	0.00000000	67.99335000	30.73942000
179.09998954	0.00000000	67.99335000	30.37647000
179.29998953	0.00000000	67.99335000	30.09350000
179.49998952	0.00000000	67.99335000	30.37647000
179.69998951	0.00000000	67.99335000	30.73942000
179.89998950	0.00000000	67.99335000	30.37647000
180.09998948	0.00000000	67.99335000	30.04429000
180.29998947	0.00000000	67.95029000	30.00123000
180.49998946	0.00000000	67.61810000	30.00123000
180.69998945	0.00000000	67.24901000	30.00123000
180.89998944	0.00000000	67.61810000	30.00123000
181.09998942	0.00000000	67.90108000	30.00123000
181.29998941	0.00000000	67.61810000	30.04429000
181.49998940	0.00000000	67.24901000	30.41954000
181.69998939	0.00000000	67.61810000	31.15772000
181.89998938	0.00000000	67.95029000	31.48376000
182.09998937	0.00000000	67.99335000	31.20078000
182.29998935	0.00000000	67.99335000	30.79478000
182.49998934	0.00000000	67.99335000	30.78248000
182.69998933	0.00000000	67.99335000	30.37647000
182.89998932	0.00000000	67.99335000	30.04429000
183.09998931	0.00000000	67.99335000	30.00123000
183.29998929	0.00000000	67.99335000	30.00123000
183.49998928	0.00000000	67.99335000	30.00123000
183.69998927	0.00000000	67.99335000	30.00123000
183.89998926	0.00000000	67.99335000	30.00123000
184.09998925	0.00000000	67.99335000	30.04429000
184.29998923	0.00000000	67.99335000	30.41954000
184.49998922	0.00000000	67.99335000	31.15772000
184.69998921	0.00000000	67.99335000	31.53297000
184.89998920	0.00000000	67.99335000	31.57603000
185.09998919	0.00000000	67.99335000	31.57603000
185.29998918	0.00000000	67.99335000	31.57603000
185.49998916	0.00000000	67.99335000	31.57603000
185.69998915	0.00000000	67.99335000	31.57603000
185.89998914	0.00000000	67.99335000	31.53297000
186.09998913	0.00000000	67.99335000	31.15772000
186.29998912	0.00000000	67.99335000	30.41954000
186.49998910	0.00000000	67.99335000	30.04429000
186.69998909	0.00000000	67.99335000	30.04429000
186.89998908	0.00000000	67.99335000	30.41954000
187.09998907	0.00000000	67.99335000	31.20078000
187.29998906	0.00000000	67.99335000	31.90822000
187.49998904	0.00000000	67.99335000	32.32037000
187.69998903	0.00000000	67.99335000	31.99434000
187.89998902	0.00000000	67.99335000	31.99434000
188.09998901	0.00000000	67.99335000	32.32037000
188.29998900	0.00000000	67.99335000	31.95128000
188.49998899	0.00000000	67.99335000	31.61909000
188.69998897	0.00000000	67.99335000	31.57603000
188.89998896	0.00000000	68.03641000	31.53297000
189.09998895	0.00000000	68.36859000	31.15772000
189.29998894	0.00000000	68.73769000	30.41954000
189.49998893	0.00000000	68.36859000	30.09350000
189.69998891	0.00000000	68.03641000	30.41954000
189.89998890	0.00000000	67.99335000	31.15772000
190.09998889	0.00000000	67.99335000	31.53297000
190.29998888	0.00000000	67.99335000	31.57603000
190.49998887	0.00000000	67.99335000	31.57603000
190.69998885	0.00000000	67.99335000	31.57603000
190.89998884	0.00000000	67.99335000	31.57603000
191.09998883	0.00000000	67.99335000	31.57603000
191.29998882	0.00000000	67.99335000	31.57603000
191.49998881	0.00000000	67.99335000	31.57603000
191.69998880	0.00000000	67.99335000	31.57603000
191.89998878	0.00000000	67.99335000	31.57603000
192.09998877	0.00000000	67.99335000	31.57603000
192.29998876	0.00000000	67.99335000	31.53297000
192.49998875	0.00000000	67.99335000	31.20078000
192.69998874	0.00000000	67.99335000	30.79478000
192.89998872	0.00000000	67.99335000	30.83169000
193.09998871	0.00000000	67.99335000	30.79478000
193.29998870	0.00000000	67.99335000	31.15772000
193.49998869	0.00000000	67.99335000	31.15772000
193.69998868	0.00000000	67.99335000	30.83784000
193.89998866	0.00000000	67.99335000	31.20078000
194.09998865	0.00000000	67.99335000	31.53297000
194.29998864	0.00000000	67.99335000	31.57603000
194.49998863	0.00000000	67.99335000	31.57603000
194.69998862	0.00000000	67.99335000	31.57603000
194.89998861	0.00000000	68.03641000	31.57603000
195.09998859	0.00000000	68.36859000	31.57603000
195.29998858	0.00000000	68.73769000	31.57603000
195.49998857	0.00000000	68.36859000	31.53297000
195.69998856	0.00000000	68.03641000	31.15772000
195.89998855	0.00000000	67.99335000	30.41954000
196.09998853	0.00000000	67.99335000	30.04429000
