Time	Channel A	Channel B	Channel C
(us)	(V)	(mV)	(mV)

-4.59999956	0.00000000	38.32431000	6.31151500
-4.39999957	0.00000000	38.69341000	6.31151500
-4.19999958	0.00000000	38.32431000	6.31151500
-3.99999959	0.00000000	37.99213000	6.31151500
-3.79999960	0.00000000	37.99213000	6.31151500
-3.59999962	0.00000000	38.32431000	6.31151500
-3.39999963	0.00000000	38.69341000	6.31151500
-3.19999964	0.00000000	38.32431000	6.31151500
-2.99999965	0.00000000	37.99213000	6.31151500
-2.79999966	0.00000000	37.94907000	6.31151500
-2.59999968	0.00000000	37.94907000	6.31151500
-2.39999969	0.00000000	37.94907000	6.31151500
-2.19999970	0.00000000	37.94907000	6.31151500
-1.99999971	0.00000000	37.94907000	6.31151500
-1.79999972	0.00000000	37.94907000	6.31151500
-1.59999973	0.00000000	37.94907000	6.31151500
-1.39999975	0.00000000	37.94907000	6.31151500
-1.19999976	0.00000000	37.94907000	6.31151500
-0.99999977	0.00000000	37.94907000	6.31151500
-0.79999978	0.00000000	37.94907000	6.31151500
-0.59999979	0.00000000	37.94907000	6.31151500
-0.39999981	0.00000000	37.99213000	6.31151500
-0.19999982	0.47736220	38.36737000	6.31151500
0.00000017	0.79601380	39.06250000	6.31151500
0.20000016	0.95533960	39.06250000	6.31151500
0.40000015	0.95533960	38.36737000	6.31151500
0.60000013	0.63668800	37.99213000	6.31151500
0.80000012	0.00000000	37.94907000	6.31151500
1.00000011	-0.79601380	37.99213000	6.31151500
1.20000010	-1.91129400	38.32431000	6.31151500
1.40000009	-2.54859700	38.69341000	6.35457700
1.60000008	-2.70792300	38.36737000	6.68676100
1.80000006	-2.07062000	38.41658000	7.09891700
2.00000005	-0.63668800	39.06250000	7.06200700
2.20000004	1.27399100	39.06250000	7.14197800
2.40000003	3.34522600	38.41658000	7.06200700
2.60000002	4.93786900	38.36737000	7.09891700
2.80000000	5.25652100	38.69341000	6.68676100
2.99999999	4.30056600	38.32431000	6.31151500
3.19999998	1.91129400	37.99213000	5.93626900
3.39999997	-1.27399100	37.94907000	5.57332700
3.59999996	-4.61921700	37.94907000	5.93626900
3.79999994	-7.16781500	37.94907000	6.26845500
3.99999993	-7.96444400	37.99213000	6.35457700
4.19999992	-6.84916400	38.36737000	6.72982200
4.39999991	-3.82258900	39.11171000	7.47416300
4.59999990	0.47736220	39.43774000	7.80019600
4.79999989	4.77854300	39.11171000	7.47416300
4.99999987	8.12377000	38.36737000	6.72982200
5.19999986	9.55770200	38.04134000	6.35457700
5.39999985	8.44242100	38.32431000	6.26845500
5.59999984	5.25652100	38.69341000	5.93626900
5.79999983	0.63668800	38.32431000	5.57332700
5.99999981	-3.98191400	37.99213000	5.93626900
6.19999980	-7.64579200	37.94907000	6.26845500
6.39999979	-9.39837600	37.94907000	6.31151500
6.59999978	-8.76107300	37.94907000	6.31151500
6.79999977	-5.89382400	37.94907000	6.35457700
6.99999975	-1.75196900	37.94907000	6.68676100
7.19999974	2.38927200	37.99213000	7.05585600
7.39999973	5.89382400	38.32431000	6.68676100
7.59999972	7.64579200	38.69341000	6.35457700
7.79999971	7.32714100	38.32431000	6.31151500
7.99999970	5.25652100	37.99213000	6.31151500
8.19999968	2.22994600	37.94907000	6.31151500
8.39999967	-0.95533960	37.94907000	6.31151500
8.59999966	-3.66326300	37.94907000	6.31151500
8.79999965	-5.09719500	37.94907000	6.31151500
8.99999964	-4.93786900	37.94907000	6.31151500
9.19999962	-3.82258900	37.94907000	6.31151500
9.39999961	-1.91129400	37.94907000	6.31151500
9.59999960	0.00000000	37.94907000	6.31151500
9.79999959	1.59264300	37.94907000	6.31151500
9.99999958	2.38927200	37.94907000	6.31151500
10.19999956	2.54859700	37.94907000	6.31151500
10.39999955	2.07062000	37.94907000	6.31151500
10.59999954	1.11466500	37.94907000	6.31151500
10.79999953	0.15871060	37.94907000	6.31151500
10.99999952	-0.47736220	37.94907000	6.31151500
11.19999951	-0.79601380	37.94907000	6.31151500
11.39999949	-0.95533960	37.94907000	6.31151500
11.59999948	-0.79601380	37.94907000	6.31151500
11.79999947	-0.63668800	37.94907000	6.31151500
11.99999946	-0.31803640	37.94907000	6.31151500
12.19999945	-0.15871060	37.94907000	6.31151500
12.39999943	-0.15871060	37.94907000	6.31151500
12.59999942	0.00000000	37.94907000	6.31151500
12.79999941	0.00000000	37.94907000	6.31151500
12.99999940	0.00000000	37.94907000	6.31151500
13.19999939	0.00000000	37.94907000	6.31151500
13.39999937	0.00000000	37.94907000	6.31151500
13.59999936	0.00000000	37.94907000	6.31151500
13.79999935	0.00000000	37.94907000	6.31151500
13.99999934	0.00000000	37.94907000	6.31151500
14.19999933	-0.15871060	37.94907000	6.35457700
14.39999932	-0.15871060	37.94907000	6.68676100
14.59999930	-0.15871060	37.94907000	7.05585600
14.79999929	-0.15871060	37.94907000	6.68676100
14.99999928	0.00000000	37.94907000	6.35457700
15.19999927	0.00000000	37.94907000	6.31151500
15.39999926	0.00000000	37.94907000	6.31151500
15.59999924	0.00000000	37.94907000	6.31151500
15.79999923	0.00000000	37.94907000	6.31151500
15.99999922	0.00000000	37.94907000	6.31151500
16.19999921	0.00000000	37.94907000	6.31151500
16.39999920	0.00000000	37.94907000	6.31151500
16.59999919	-0.15871060	37.94907000	6.31151500
16.79999917	-0.15871060	37.99213000	6.31151500
16.99999916	0.00000000	38.36737000	6.31151500
17.19999915	0.00000000	39.15477000	6.31151500
17.39999914	0.00000000	39.86220000	6.31151500
17.59999913	0.00000000	40.27436000	6.31151500
17.79999911	0.00000000	39.86220000	6.31151500
17.99999910	0.00000000	39.11171000	6.31151500
18.19999909	0.00000000	37.90600000	6.31151500
18.39999908	0.00000000	36.36811000	6.31151500
18.59999907	0.00000000	34.78716000	6.31151500
18.79999905	0.00000000	33.29232000	6.31151500
18.99999904	0.00000000	32.54798000	6.31151500
19.19999903	0.00000000	33.33538000	6.31151500
19.39999902	0.00000000	35.24852000	6.31151500
19.59999901	0.00000000	38.04134000	6.31151500
19.79999900	0.00000000	41.52928000	6.31151500
19.99999898	0.00000000	45.38631000	6.31151500
20.19999897	0.00000000	48.36983000	6.31151500
20.39999896	0.00000000	49.15723000	6.31151500
20.59999895	0.00000000	47.16412000	6.31151500
20.79999894	0.00000000	42.87647000	6.31151500
20.99999892	0.00000000	36.23277000	6.31151500
21.19999891	0.00000000	28.54946000	6.31151500
21.39999890	0.00000000	21.61663000	6.31151500
21.59999889	0.00000000	17.42741000	6.31151500
21.79999888	0.00000000	17.47047000	6.31151500
21.99999886	0.00000000	22.21334000	6.31151500
22.19999885	0.00000000	31.52067000	6.31151500
22.39999884	0.00000000	43.89763000	6.31151500
22.59999883	0.00000000	56.23154000	6.31151500
22.79999882	0.00000000	65.86491000	6.31151500
22.99999881	0.00000000	69.96185000	6.35457700
23.19999879	0.00000000	66.46776000	6.72982200
23.39999878	0.00000000	55.63484000	7.47416300
23.59999877	0.00000000	40.08981000	7.84940900
23.79999876	0.00000000	22.31176000	7.89247000
23.99999875	0.00000000	6.17618100	7.89247000
24.19999873	0.00000000	-3.37106300	7.84940900
24.39999872	0.00000000	-3.78321800	7.42495000
24.59999871	0.00000000	5.56102300	6.26845500
24.79999870	0.00000000	22.59473000	4.73671200
24.99999869	0.00000000	44.27288000	3.15575800
25.19999867	0.00000000	65.86491000	1.62401600
25.39999866	0.00000000	82.01279000	0.51058070
25.59999865	0.00000000	88.52116000	0.55364170
25.79999864	0.00000000	83.08316000	2.12844500
25.99999863	0.00000000	66.89222000	5.24729300
26.19999862	0.00000000	43.71924000	9.43036400
26.39999860	0.00000000	19.00837000	13.32431000
26.59999859	0.00000000	-1.50713600	16.07406000
26.79999858	0.00000000	-13.46580000	17.92569000
26.99999857	0.00000000	-14.16092000	17.42126000
27.19999856	0.00000000	-2.62057100	13.56422000
27.39999854	0.00000000	18.17175000	7.33882900
27.59999853	0.00000000	42.51353000	-0.37524600
27.79999852	0.00000000	65.35433000	-7.99089500
27.99999851	0.00000000	81.54527000	-12.63533000
28.19999850	0.00000000	87.40771000	-13.42889000
28.39999848	0.00000000	82.05585000	-10.64222000
28.59999847	0.00000000	67.39665000	-3.58636800
28.79999846	0.00000000	46.92421000	6.86515700
28.99999845	0.00000000	25.28912000	18.81152000
29.19999844	0.00000000	7.46801100	29.53986000
29.39999843	0.00000000	-3.03887800	35.67913000
29.59999841	0.00000000	-4.61983300	35.67913000
29.79999840	0.00000000	2.68208600	29.40452000
29.99999839	0.00000000	16.92298000	17.37205000
30.19999838	0.00000000	34.31963000	1.58095500
30.39999837	0.00000000	50.97810000	-14.17323000
30.59999835	0.00000000	63.81643000	-25.78740000
30.79999834	0.00000000	70.42937000	-30.80709000
30.99999833	0.00000000	70.09719000	-28.43258000
31.19999832	0.00000000	63.16436000	-18.35630000
31.39999831	0.00000000	51.58095000	-2.55905500
31.59999829	0.00000000	38.03519000	15.23130000
31.79999828	0.00000000	25.24606000	31.49606000
31.99999827	0.00000000	15.93873000	43.06717000
32.19999826	0.00000000	11.65723000	47.25024000
32.39999825	0.00000000	13.15207000	42.59965000
32.59999824	0.00000000	19.70349000	29.87205000
32.79999822	0.00000000	29.34301000	12.16781000
32.99999821	0.00000000	40.18209000	-6.40994000
33.19999820	0.00000000	49.48942000	-21.88730000
33.39999819	0.00000000	55.67790000	-31.54527000
33.59999818	0.00000000	57.67101000	-33.08317000
33.79999816	0.00000000	54.93356000	-26.24877000
33.99999815	0.00000000	48.82505000	-13.43504000
34.19999814	0.00000000	40.28051000	2.83587600
34.39999813	0.00000000	31.84670000	20.20177000
34.59999812	0.00000000	25.28912000	34.00591000
34.79999810	0.00000000	22.54552000	41.06791000
34.99999809	0.00000000	24.02805000	40.32357000
35.19999808	0.00000000	28.22958000	32.60949000
35.39999807	0.00000000	34.45497000	19.46358000
35.59999806	0.00000000	40.93258000	3.70939900
35.79999805	0.00000000	45.99532000	-10.54995000
35.99999803	0.00000000	48.28371000	-19.88804000
36.19999802	0.00000000	47.57627000	-23.00074000
36.39999801	0.00000000	44.09449000	-19.51279000
36.59999800	0.00000000	39.11171000	-9.89788300
36.79999799	0.00000000	33.71063000	3.11269700
36.99999797	0.00000000	29.52141000	15.79724000
37.19999796	0.00000000	27.94045000	24.66781000
37.39999795	0.00000000	29.05389000	27.82972000
37.59999794	0.00000000	32.17273000	25.13533000
37.79999793	0.00000000	36.78642000	17.50738000
37.99999791	0.00000000	41.76304000	7.15428100
38.19999790	0.00000000	45.25713000	-2.42372000
38.39999789	0.00000000	46.83809000	-8.96899500
38.59999788	0.00000000	46.46284000	-10.45768000
38.79999787	0.00000000	44.13755000	-6.27460600
38.99999786	0.00000000	40.64345000	2.08538400
39.19999784	0.00000000	36.36811000	11.65723000
39.39999783	0.00000000	32.12967000	19.32825000
39.59999782	0.00000000	29.05389000	23.18528000
39.79999781	0.00000000	27.84818000	21.97957000
39.99999780	0.00000000	28.63558000	15.84030000
40.19999778	0.00000000	30.96703000	6.26845500
40.39999777	0.00000000	34.83022000	-3.67249000
40.59999776	0.00000000	39.06250000	-10.96826000
40.79999775	0.00000000	42.59965000	-13.66265000
40.99999774	0.00000000	45.30019000	-10.96826000
41.19999772	0.00000000	46.46284000	-3.67249000
41.39999771	0.00000000	45.71850000	6.26845500
41.59999770	0.00000000	43.80536000	15.88336000
41.79999769	0.00000000	41.01870000	22.48400000
41.99999768	0.00000000	37.53075000	25.17839000
42.19999767	0.00000000	33.71063000	23.22835000
42.39999765	0.00000000	31.01009000	16.72613000
42.59999764	0.00000000	30.17347000	7.89247000
42.79999763	0.00000000	30.50566000	-0.93503930
42.99999762	0.00000000	31.71137000	-7.48031400
43.19999761	0.00000000	33.66756000	-9.85482200
43.39999759	0.00000000	36.31890000	-8.40920300
43.59999758	0.00000000	38.64419000	-4.14000900
43.79999757	0.00000000	39.86220000	2.04232300
43.99999756	0.00000000	40.69267000	8.91978400
44.19999755	0.00000000	41.06791000	14.30241000
44.39999753	0.00000000	41.11097000	16.67692000
44.59999752	0.00000000	41.11097000	16.35089000
44.79999751	0.00000000	41.11097000	13.69956000
44.99999750	0.00000000	41.06791000	9.84867000
45.19999749	0.00000000	40.64345000	5.98548200
45.39999748	0.00000000	39.43774000	2.46063000
45.59999746	0.00000000	37.48154000	0.17839570
45.79999745	0.00000000	34.73794000	-0.65206690
45.99999744	0.00000000	31.66830000	0.13533460
46.19999743	0.00000000	28.96776000	2.04232300
46.39999742	0.00000000	27.42987000	4.73671200
46.59999740	0.00000000	27.47293000	7.43110200
46.79999739	0.00000000	29.47835000	9.38115100
46.99999738	0.00000000	33.75369000	10.53765000
47.19999737	0.00000000	39.57308000	10.53765000
47.39999736	0.00000000	45.76156000	9.38115100
47.59999734	0.00000000	51.11343000	7.47416300
47.79999733	0.00000000	53.76476000	5.15501900
47.99999732	0.00000000	52.55905000	3.19881900
48.19999731	0.00000000	47.53321000	1.62401600
48.39999730	0.00000000	39.43774000	0.51058070
48.59999729	0.00000000	30.59178000	0.55364170
48.79999727	0.00000000	23.19759000	2.08538400
48.99999726	0.00000000	18.59006000	4.77977300
49.19999725	0.00000000	17.89493000	7.84940900
49.39999724	0.00000000	22.12721000	10.58686000
49.59999723	0.00000000	30.21653000	12.49385000
49.79999721	0.00000000	39.85605000	13.18898000
49.99999720	0.00000000	49.15723000	11.65723000
50.19999719	0.00000000	55.62869000	8.22465500
50.39999718	0.00000000	57.57874000	4.40452700
50.59999717	0.00000000	54.09695000	0.88582670
50.79999715	0.00000000	46.46284000	-1.39640700
50.99999714	0.00000000	36.82948000	-2.22687000
51.19999713	0.00000000	27.98966000	-1.39640700
51.39999712	0.00000000	22.12721000	0.97194880
51.59999711	0.00000000	20.21407000	5.19808000
51.79999710	0.00000000	22.50246000	10.11934000
51.99999708	0.00000000	28.68479000	13.60728000
52.19999707	0.00000000	36.69414000	15.18824000
52.39999706	0.00000000	44.41437000	14.76993000
52.59999705	0.00000000	49.44020000	12.07554000
52.79999704	0.00000000	51.02116000	7.89247000
52.99999702	0.00000000	49.06496000	3.66633800
53.19999701	0.00000000	43.71924000	0.55364170
53.39999700	0.00000000	36.82948000	-1.02116100
53.59999699	0.00000000	30.68405000	-1.02116100
53.79999698	0.00000000	26.77780000	0.51058070
53.99999696	0.00000000	26.02731000	3.19881900
54.19999695	0.00000000	28.31570000	6.26845500
54.39999694	0.00000000	33.29232000	8.91978400
54.59999693	0.00000000	39.01944000	10.07628000
54.79999692	0.00000000	43.67618000	9.38115100
54.99999691	0.00000000	46.37057000	7.89247000
55.19999689	0.00000000	46.37057000	6.31151500
55.39999688	0.00000000	43.67618000	4.82283400
55.59999687	0.00000000	39.11171000	4.08464600
55.79999686	0.00000000	34.12894000	4.82283400
55.99999685	0.00000000	30.63484000	6.36072800
56.19999683	0.00000000	29.05389000	8.26771600
56.39999682	0.00000000	29.47835000	10.11934000
56.59999681	0.00000000	32.12967000	10.45152000
56.79999680	0.00000000	35.94980000	8.91978400
56.99999679	0.00000000	39.43774000	5.85014700
57.19999677	0.00000000	42.13828000	2.04232300
57.39999676	0.00000000	43.30093000	-1.02116100
57.59999675	0.00000000	42.55659000	-2.55905500
57.79999674	0.00000000	40.64345000	-2.14074800
57.99999673	0.00000000	37.90600000	0.59670270
58.19999672	0.00000000	34.87328000	5.24729300
58.39999670	0.00000000	32.59719000	10.96211000
58.59999669	0.00000000	32.17273000	15.92642000
58.79999668	0.00000000	33.24926000	18.25787000
58.99999667	0.00000000	34.78716000	17.83957000
59.19999666	0.00000000	36.36811000	14.30241000
59.39999664	0.00000000	37.90600000	7.80019600
59.59999663	0.00000000	39.06250000	0.55364170
59.79999662	0.00000000	39.43774000	-5.29650500
59.99999661	0.00000000	39.06250000	-8.73523500
60.19999660	0.00000000	37.90600000	-9.06126900
60.39999658	0.00000000	36.41117000	-5.20423200
60.59999657	0.00000000	35.25467000	1.66707700
60.79999656	0.00000000	34.87943000	9.42421200
60.99999655	0.00000000	35.25467000	16.72613000
61.19999654	0.00000000	36.41117000	21.69045000
61.39999653	0.00000000	37.94907000	22.48400000
61.59999651	0.00000000	39.43774000	19.42052000
61.79999650	0.00000000	40.18209000	13.23819000
61.99999649	0.00000000	39.43774000	5.11195900
62.19999648	0.00000000	37.94907000	-2.93430100
62.39999647	0.00000000	36.32505000	-9.10433000
62.59999645	0.00000000	34.41191000	-11.38656000
62.79999644	0.00000000	32.54798000	-9.52263600
62.99999643	0.00000000	32.17273000	-4.09079700
63.19999642	0.00000000	33.29232000	3.57406500
63.39999641	0.00000000	35.20546000	11.65723000
63.59999639	0.00000000	37.53075000	17.83957000
63.79999638	0.00000000	39.48696000	20.99532000
63.99999637	0.00000000	41.06791000	20.99532000
64.19999636	0.00000000	42.13828000	17.88263000
64.39999635	0.00000000	41.71998000	12.11860000
64.59999634	0.00000000	39.48696000	5.20423200
64.79999632	0.00000000	36.78642000	-0.97810030
64.99999631	0.00000000	34.45497000	-5.29650500
65.19999630	0.00000000	32.50492000	-7.20349400
65.39999629	0.00000000	31.79749000	-6.45300100
65.59999628	0.00000000	32.50492000	-3.02042300
65.79999626	0.00000000	34.41191000	1.57480300
65.99999625	0.00000000	36.32505000	6.26845500
66.19999624	0.00000000	37.90600000	10.53765000
66.39999623	0.00000000	39.06250000	13.69956000
66.59999622	0.00000000	39.43774000	15.60654000
66.79999620	0.00000000	39.01944000	15.97564000
66.99999619	0.00000000	37.48154000	14.07480000
67.19999618	0.00000000	35.24852000	11.04823000
67.39999617	0.00000000	33.75369000	7.89247000
67.59999616	0.00000000	33.71063000	4.77977300
67.79999615	0.00000000	34.87328000	1.99311000
67.99999613	0.00000000	36.78642000	-0.37524600
68.19999612	0.00000000	39.11171000	-2.64517700
68.39999611	0.00000000	40.97564000	-3.76476400
68.59999610	0.00000000	41.71998000	-2.97736200
68.79999609	0.00000000	40.55733000	-0.69512790
68.99999607	0.00000000	37.85679000	2.82972400
69.19999606	0.00000000	34.41191000	6.72982200
69.39999605	0.00000000	30.96703000	11.00517000
69.59999604	0.00000000	29.01082000	14.81299000
69.79999603	0.00000000	28.63558000	16.71998000
69.99999601	0.00000000	29.85359000	16.39395000
70.19999600	0.00000000	33.33538000	14.03174000
70.39999599	0.00000000	37.89985000	10.11934000
70.59999598	0.00000000	42.22441000	4.73671200
70.79999597	0.00000000	45.67544000	-0.60285430
70.99999596	0.00000000	47.57627000	-4.09079700
71.19999594	0.00000000	46.74582000	-5.29650500
71.39999593	0.00000000	43.30093000	-4.13385800
71.59999592	0.00000000	37.89985000	-1.07037400
71.79999591	0.00000000	32.12967000	3.20497000
71.99999590	0.00000000	27.47293000	7.80019600
72.19999588	0.00000000	24.73548000	11.65723000
72.39999587	0.00000000	24.36024000	13.61343000
72.59999586	0.00000000	26.31643000	13.65650000
72.79999585	0.00000000	30.59178000	12.11860000
72.99999584	0.00000000	36.31890000	9.42421200
73.19999582	0.00000000	41.76304000	6.36072800
73.39999581	0.00000000	45.62623000	3.66633800
73.59999580	0.00000000	47.57627000	2.12844500
73.79999579	0.00000000	46.78888000	2.08538400
73.99999578	0.00000000	43.76230000	3.19881900
74.19999577	0.00000000	39.48696000	4.68750000
74.39999575	0.00000000	34.87328000	5.85014700
74.59999574	0.00000000	31.01624000	6.21924200
74.79999573	0.00000000	29.05389000	5.85014700
74.99999572	0.00000000	29.01082000	4.68750000
75.19999571	0.00000000	30.54872000	3.19881900
75.39999569	0.00000000	33.24926000	2.08538400
75.59999568	0.00000000	36.27584000	2.12844500
75.79999567	0.00000000	38.64419000	3.66633800
75.99999566	0.00000000	39.86220000	6.40378900
76.19999565	0.00000000	40.64345000	9.84867000
76.39999563	0.00000000	40.60039000	13.23819000
76.59999562	0.00000000	39.48696000	14.72687000
76.79999561	0.00000000	37.99213000	13.60728000
76.99999560	0.00000000	36.83563000	10.53765000
77.19999559	0.00000000	36.41117000	6.26845500
77.39999558	0.00000000	36.36811000	1.62401600
77.59999556	0.00000000	36.36811000	-2.64517700
77.79999555	0.00000000	36.36811000	-5.67175200
77.99999554	0.00000000	36.32505000	-6.40994000
78.19999553	0.00000000	35.90059000	-4.04773600
78.39999552	0.00000000	34.78716000	0.87967510
78.59999550	0.00000000	33.66756000	7.05585600
78.79999549	0.00000000	33.29232000	12.45079000
78.99999548	0.00000000	33.66756000	16.39395000
79.19999547	0.00000000	34.87328000	18.25787000
79.39999546	0.00000000	36.78642000	17.50738000
79.59999544	0.00000000	39.11171000	14.03174000
79.79999543	0.00000000	41.01870000	9.05511800
79.99999542	0.00000000	42.13828000	3.62327700
80.19999541	0.00000000	41.76304000	-1.02116100
80.39999540	0.00000000	39.86220000	-4.13385800
80.59999539	0.00000000	37.53075000	-5.29650500
80.79999537	0.00000000	34.78716000	-4.13385800
80.99999536	0.00000000	32.12967000	-1.11343500
81.19999535	0.00000000	30.59178000	2.78051200
81.39999534	0.00000000	30.59178000	6.68676100
81.59999533	0.00000000	32.12967000	10.58686000
81.79999531	0.00000000	34.78716000	13.60728000
81.99999530	0.00000000	37.48154000	14.81299000
82.19999529	0.00000000	39.43774000	14.11786000
82.39999528	0.00000000	40.60039000	12.53691000
82.59999527	0.00000000	40.64345000	10.21161000
82.79999525	0.00000000	39.86220000	7.06200700
82.99999524	0.00000000	38.69341000	3.94315900
83.19999523	0.00000000	36.74335000	0.41830710
83.39999522	0.00000000	34.87328000	-2.60211600
83.59999521	0.00000000	33.66756000	-4.14000900
83.79999520	0.00000000	33.24311000	-3.76476400
83.99999518	0.00000000	33.24311000	-1.44562000
84.19999517	0.00000000	33.66756000	2.04232300
84.39999516	0.00000000	34.78716000	6.31151500
84.59999515	0.00000000	35.90059000	10.58686000
84.79999514	0.00000000	36.32505000	14.07480000
84.99999512	0.00000000	36.36811000	16.35089000
85.19999511	0.00000000	36.36811000	16.30167000
85.39999510	0.00000000	36.41117000	13.65650000
85.59999509	0.00000000	36.83563000	9.43036400
85.79999508	0.00000000	37.90600000	4.73671200
85.99999506	0.00000000	38.64419000	0.09227362
86.19999505	0.00000000	38.28125000	-3.71555100
86.39999504	0.00000000	37.57381000	-5.25344500
86.59999503	0.00000000	36.70029000	-4.13385800
86.79999502	0.00000000	35.57455000	-1.07037400
86.99999501	0.00000000	33.99360000	3.20497000
87.19999499	0.00000000	32.91707000	7.84940900
87.39999498	0.00000000	32.45571000	12.11860000
87.59999497	0.00000000	32.91707000	15.14518000
87.79999496	0.00000000	34.04282000	15.88336000
87.99999495	0.00000000	35.99286000	13.61343000
88.19999493	0.00000000	37.90600000	9.43036400
88.39999492	0.00000000	39.48696000	4.77977300
88.59999491	0.00000000	40.60039000	0.51058070
88.79999490	0.00000000	40.60039000	-2.55905500
88.99999489	0.00000000	39.43774000	-3.67249000
89.19999487	0.00000000	37.53075000	-2.14074800
89.39999486	0.00000000	35.20546000	1.66707700
89.59999485	0.00000000	33.29232000	6.26845500
89.79999484	0.00000000	32.17273000	10.58686000
89.99999483	0.00000000	32.50492000	13.98253000
90.19999482	0.00000000	33.99360000	15.46506000
90.39999480	0.00000000	35.16240000	13.52116000
90.59999479	0.00000000	36.36811000	9.05511800
90.79999478	0.00000000	37.48154000	4.04158400
90.99999477	0.00000000	37.90600000	0.13533460
91.19999476	0.00000000	37.94907000	-2.55905500
91.39999474	0.00000000	37.90600000	-3.29724400
91.59999473	0.00000000	37.53075000	-1.35334600
91.79999472	0.00000000	36.78642000	2.46063000
91.99999471	0.00000000	36.41117000	7.43110200
92.19999470	0.00000000	36.36811000	11.65723000
92.39999468	0.00000000	36.36811000	13.98253000
92.59999467	0.00000000	36.32505000	14.35162000
92.79999466	0.00000000	35.94980000	11.98327000
92.99999465	0.00000000	35.16240000	7.47416300
93.19999464	0.00000000	34.41191000	2.50369100
93.39999463	0.00000000	33.61835000	-0.97810030
93.59999461	0.00000000	33.29232000	-2.55905500
93.79999460	0.00000000	33.61835000	-2.14074800
93.99999459	0.00000000	34.45497000	0.55364170
94.19999458	0.00000000	35.62377000	4.73671200
94.39999457	0.00000000	37.57381000	8.96284400
94.59999455	0.00000000	39.43774000	12.03248000
94.79999454	0.00000000	40.64345000	13.18898000
94.99999453	0.00000000	40.97564000	12.03248000
95.19999452	0.00000000	40.22515000	9.00590400
95.39999451	0.00000000	38.28125000	5.15501900
95.59999449	0.00000000	35.94980000	1.71013800
95.79999448	0.00000000	33.20005000	-0.60285430
95.99999447	0.00000000	30.54872000	-0.97810030
96.19999446	0.00000000	29.01082000	0.51058070
96.39999445	0.00000000	29.01082000	3.19881900
96.59999444	0.00000000	30.59178000	6.26845500
96.79999442	0.00000000	33.66756000	8.96284400
96.99999441	0.00000000	37.53075000	10.49459000
97.19999440	0.00000000	41.01870000	10.49459000
97.39999439	0.00000000	43.71924000	9.00590400
97.59999438	0.00000000	44.83267000	6.68676100
97.79999436	0.00000000	43.71924000	4.40452700
97.99999435	0.00000000	41.01870000	2.46063000
98.19999434	0.00000000	37.53075000	1.71013800
98.39999433	0.00000000	33.61835000	2.04232300
98.59999432	0.00000000	30.13041000	3.19881900
98.79999430	0.00000000	27.42987000	4.68750000
98.99999429	0.00000000	26.35950000	5.89320800
99.19999428	0.00000000	27.84818000	6.68676100
99.39999427	0.00000000	31.29306000	7.42495000
99.59999426	0.00000000	35.16240000	7.42495000
99.79999425	0.00000000	39.06250000	6.72982200
99.99999423	0.00000000	42.13828000	6.35457700
100.19999422	0.00000000	43.71924000	6.31151500
100.39999421	0.00000000	43.71924000	6.35457700
100.59999420	0.00000000	42.18134000	6.72982200
100.79999419	0.00000000	39.48696000	7.42495000
100.99999417	0.00000000	36.36811000	7.38188900
101.19999416	0.00000000	33.24926000	6.26845500
101.39999415	0.00000000	30.54872000	4.73671200
101.59999414	0.00000000	29.01082000	3.19881900
101.79999413	0.00000000	28.96776000	2.04232300
101.99999411	0.00000000	30.13041000	1.66707700
102.19999410	0.00000000	32.08661000	2.08538400
102.39999409	0.00000000	34.78716000	3.61712600
102.59999408	0.00000000	37.48154000	5.93626900
102.79999407	0.00000000	39.43774000	8.26771600
102.99999406	0.00000000	40.60039000	10.53765000
103.19999404	0.00000000	40.60039000	11.65723000
103.39999403	0.00000000	39.48696000	10.91289000
103.59999402	0.00000000	37.94907000	9.00590400
103.79999401	0.00000000	36.36811000	6.26845500
103.99999400	0.00000000	34.78716000	3.19881900
104.19999398	0.00000000	33.24926000	0.51058070
104.39999397	0.00000000	32.12967000	-0.97810030
104.59999396	0.00000000	32.12967000	-0.60285430
104.79999395	0.00000000	33.24926000	1.62401600
104.99999394	0.00000000	34.78716000	4.31840500
105.19999392	0.00000000	36.32505000	6.68676100
105.39999391	0.00000000	37.48154000	9.00590400
105.59999390	0.00000000	37.90600000	10.49459000
105.79999389	0.00000000	37.90600000	10.49459000
105.99999388	0.00000000	37.48154000	8.96284400
106.19999387	0.00000000	36.36811000	6.31151500
106.39999385	0.00000000	35.20546000	3.66633800
106.59999384	0.00000000	34.45497000	2.08538400
106.79999383	0.00000000	34.04282000	1.66707700
106.99999382	0.00000000	34.45497000	2.04232300
107.19999381	0.00000000	35.20546000	3.24803100
107.39999379	0.00000000	36.36811000	5.11195900
107.59999378	0.00000000	37.48154000	7.01279500
107.79999377	0.00000000	37.85679000	7.80019600
107.99999376	0.00000000	37.48154000	7.84940900
108.19999375	0.00000000	36.36811000	7.42495000
108.39999374	0.00000000	35.20546000	6.26845500
108.59999372	0.00000000	34.41191000	4.73671200
108.79999371	0.00000000	33.61835000	3.24803100
108.99999370	0.00000000	33.29232000	2.46063000
109.19999369	0.00000000	33.66756000	2.82357300
109.39999368	0.00000000	34.78716000	3.62327700
109.59999366	0.00000000	35.94980000	5.19808000
109.79999365	0.00000000	36.74335000	7.43110200
109.99999364	0.00000000	37.53075000	8.96284400
110.19999363	0.00000000	37.90600000	9.38115100
110.39999362	0.00000000	37.90600000	9.00590400
110.59999360	0.00000000	37.48154000	7.84940900
110.79999359	0.00000000	36.32505000	6.31151500
110.99999358	0.00000000	34.83022000	4.73671200
111.19999357	0.00000000	33.66756000	3.19881900
111.39999356	0.00000000	33.29232000	2.08538400
111.59999355	0.00000000	33.61835000	2.04232300
111.79999353	0.00000000	34.41191000	2.78051200
111.99999352	0.00000000	35.16240000	3.57406500
112.19999351	0.00000000	35.94980000	4.73671200
112.39999350	0.00000000	36.32505000	5.89320800
112.59999349	0.00000000	36.36811000	6.68676100
112.79999347	0.00000000	36.36811000	7.42495000
112.99999346	0.00000000	36.32505000	7.42495000
113.19999345	0.00000000	35.94980000	6.68676100
113.39999344	0.00000000	35.20546000	5.93626900
113.59999343	0.00000000	34.83022000	5.15501900
113.79999341	0.00000000	34.78716000	4.77977300
113.99999340	0.00000000	34.78716000	4.73671200
114.19999339	0.00000000	34.78716000	4.73671200
114.39999338	0.00000000	34.83022000	4.73671200
114.59999337	0.00000000	35.20546000	4.73671200
114.79999336	0.00000000	35.94980000	4.73671200
114.99999334	0.00000000	36.32505000	4.73671200
115.19999333	0.00000000	36.36811000	4.73671200
115.39999332	0.00000000	36.36811000	4.73671200
115.59999331	0.00000000	36.32505000	4.77977300
115.79999330	0.00000000	35.94980000	5.15501900
115.99999328	0.00000000	35.20546000	5.89320800
116.19999327	0.00000000	34.83022000	6.31151500
116.39999326	0.00000000	34.78716000	6.72982200
116.59999325	0.00000000	34.78716000	7.42495000
116.79999324	0.00000000	34.78716000	7.42495000
116.99999322	0.00000000	34.78716000	6.68676100
117.19999321	0.00000000	34.83022000	5.93626900
117.39999320	0.00000000	35.25467000	5.15501900
117.59999319	0.00000000	36.36811000	4.73671200
117.79999318	0.00000000	37.48154000	4.31840500
117.99999317	0.00000000	37.90600000	3.57406500
118.19999315	0.00000000	37.90600000	3.19881900
118.39999314	0.00000000	37.48154000	3.19881900
118.59999313	0.00000000	36.36811000	3.62327700
118.79999312	0.00000000	35.20546000	4.73671200
118.99999311	0.00000000	34.41191000	5.85014700
119.19999309	0.00000000	33.57529000	6.26845500
119.39999308	0.00000000	32.86786000	6.31151500
119.59999307	0.00000000	32.50492000	6.31151500
119.79999306	0.00000000	33.29232000	6.31151500
119.99999305	0.00000000	34.73794000	6.31151500
120.19999303	0.00000000	35.94980000	6.26845500
120.39999302	0.00000000	36.74335000	5.89320800
120.59999301	0.00000000	37.53075000	5.15501900
120.79999300	0.00000000	37.90600000	4.77977300
120.99999299	0.00000000	37.90600000	4.69365100
121.19999298	0.00000000	37.48154000	4.31840500
121.39999296	0.00000000	36.32505000	3.57406500
121.59999295	0.00000000	34.83022000	3.24803100
121.79999294	0.00000000	33.61835000	3.57406500
121.99999293	0.00000000	32.82480000	4.31840500
122.19999292	0.00000000	32.08661000	4.73671200
122.39999290	0.00000000	32.08661000	5.15501900
122.59999289	0.00000000	32.86786000	5.93626900
122.79999288	0.00000000	33.99360000	6.68676100
122.99999287	0.00000000	35.57455000	7.42495000
123.19999286	0.00000000	36.70029000	7.42495000
123.39999284	0.00000000	37.53075000	6.72982200
123.59999283	0.00000000	37.90600000	6.31151500
123.79999282	0.00000000	37.90600000	5.89320800
123.99999281	0.00000000	37.53075000	5.11195900
124.19999280	0.00000000	36.78642000	4.36146600
124.39999279	0.00000000	36.36811000	3.62327700
124.59999277	0.00000000	35.90059000	3.62327700
124.79999276	0.00000000	34.78716000	4.31840500
124.99999275	0.00000000	33.66756000	4.69365100
125.19999274	0.00000000	33.24311000	4.77977300
125.39999273	0.00000000	33.20005000	5.15501900
125.59999271	0.00000000	33.24311000	5.89320800
125.79999270	0.00000000	33.66756000	6.26845500
125.99999269	0.00000000	34.78716000	6.31151500
126.19999268	0.00000000	35.94980000	6.31151500
126.39999267	0.00000000	36.74335000	6.26845500
126.59999265	0.00000000	37.53075000	5.89320800
126.79999264	0.00000000	37.85679000	5.15501900
126.99999263	0.00000000	37.48154000	4.77977300
127.19999262	0.00000000	36.36811000	4.73671200
127.39999261	0.00000000	35.20546000	4.73671200
127.59999260	0.00000000	34.41191000	4.73671200
127.79999258	0.00000000	33.57529000	4.73671200
127.99999257	0.00000000	32.86786000	4.77977300
128.19999256	0.00000000	32.50492000	5.15501900
128.39999255	0.00000000	33.29232000	5.89320800
128.59999254	0.00000000	34.73794000	6.26845500
128.79999252	0.00000000	35.94980000	6.31151500
128.99999251	0.00000000	36.74335000	6.26845500
129.19999250	0.00000000	37.48154000	5.89320800
129.39999249	0.00000000	37.48154000	5.15501900
129.59999248	0.00000000	36.74335000	4.77977300
129.79999246	0.00000000	35.94980000	4.73671200
129.99999245	0.00000000	34.78716000	4.73671200
130.19999244	0.00000000	33.66756000	4.73671200
130.39999243	0.00000000	33.24311000	4.77977300
130.59999242	0.00000000	33.24311000	5.11195900
130.79999241	0.00000000	33.61835000	5.51796200
130.99999239	0.00000000	34.41191000	5.53026500
131.19999238	0.00000000	35.16240000	5.93626900
131.39999237	0.00000000	35.94980000	6.21924200
131.59999236	0.00000000	36.32505000	5.89320800
131.79999235	0.00000000	36.36811000	5.15501900
131.99999233	0.00000000	36.32505000	4.73671200
132.19999232	0.00000000	35.94980000	4.31840500
132.39999231	0.00000000	35.16240000	3.57406500
132.59999230	0.00000000	34.45497000	3.24803100
132.79999229	0.00000000	34.04282000	3.57406500
132.99999227	0.00000000	34.41191000	4.36146600
133.19999226	0.00000000	34.74409000	5.11195900
133.39999225	0.00000000	34.78716000	5.89320800
133.59999224	0.00000000	34.78716000	6.31151500
133.79999223	0.00000000	34.78716000	6.68676100
133.99999222	0.00000000	34.78716000	7.05585600
134.19999220	0.00000000	34.78716000	6.64370100
134.39999219	0.00000000	34.78716000	5.89320800
134.59999218	0.00000000	34.78716000	4.73671200
134.79999217	0.00000000	34.78716000	3.62327700
134.99999216	0.00000000	34.78716000	3.19881900
135.19999214	0.00000000	34.83022000	3.15575800
135.39999213	0.00000000	35.20546000	3.19881900
135.59999212	0.00000000	35.94980000	3.62327700
135.79999211	0.00000000	36.27584000	4.73671200
135.99999210	0.00000000	35.90059000	5.85014700
136.19999208	0.00000000	34.78716000	6.31151500
136.39999207	0.00000000	33.66756000	6.68676100
136.59999206	0.00000000	33.24311000	7.05585600
136.79999205	0.00000000	33.20005000	6.68676100
136.99999204	0.00000000	33.24311000	6.31151500
137.19999203	0.00000000	33.61835000	5.89320800
137.39999201	0.00000000	34.41191000	5.15501900
137.59999200	0.00000000	35.16240000	4.73671200
137.79999199	0.00000000	35.94980000	4.31840500
137.99999198	0.00000000	36.32505000	3.57406500
138.19999197	0.00000000	36.32505000	3.19881900
138.39999195	0.00000000	35.94980000	3.19881900
138.59999194	0.00000000	35.20546000	3.57406500
138.79999193	0.00000000	34.78716000	4.31840500
138.99999192	0.00000000	34.36884000	4.73671200
139.19999191	0.00000000	33.61835000	5.15501900
139.39999189	0.00000000	33.29232000	5.93626900
139.59999188	0.00000000	33.61835000	6.68676100
139.79999187	0.00000000	34.41191000	7.42495000
139.99999186	0.00000000	35.16240000	7.38188900
140.19999185	0.00000000	35.94980000	6.31151500
140.39999184	0.00000000	36.27584000	5.19808000
140.59999182	0.00000000	35.94980000	4.73671200
140.79999181	0.00000000	35.20546000	4.31840500
140.99999180	0.00000000	34.83022000	3.57406500
141.19999179	0.00000000	34.78716000	3.19881900
141.39999178	0.00000000	34.78716000	3.19881900
141.59999176	0.00000000	34.78716000	3.62327700
141.79999175	0.00000000	34.78716000	4.73671200
141.99999174	0.00000000	34.78716000	5.89320800
142.19999173	0.00000000	34.83022000	6.68676100
142.39999172	0.00000000	35.16240000	7.42495000
142.59999170	0.00000000	35.53149000	7.42495000
142.79999169	0.00000000	35.16240000	6.68676100
142.99999168	0.00000000	34.83022000	5.93626900
143.19999167	0.00000000	34.78716000	5.11195900
143.39999166	0.00000000	34.78716000	4.36146600
143.59999165	0.00000000	34.78716000	3.57406500
143.79999163	0.00000000	34.78716000	3.19881900
143.99999162	0.00000000	34.78716000	3.19881900
144.19999161	0.00000000	34.78716000	3.57406500
144.39999160	0.00000000	34.78716000	4.36146600
144.59999159	0.00000000	34.78716000	5.11195900
144.79999157	0.00000000	34.83022000	5.89320800
144.99999156	0.00000000	35.16240000	6.26845500
145.19999155	0.00000000	35.53149000	6.31151500
145.39999154	0.00000000	35.16240000	6.26845500
145.59999153	0.00000000	34.83022000	5.89320800
145.79999151	0.00000000	34.74409000	5.15501900
145.99999150	0.00000000	34.36884000	4.73671200
146.19999149	0.00000000	33.66756000	4.31840500
146.39999148	0.00000000	33.66756000	3.57406500
146.59999147	0.00000000	34.36884000	3.19881900
146.79999146	0.00000000	34.74409000	3.15575800
146.99999144	0.00000000	34.83022000	3.24803100
147.19999143	0.00000000	35.20546000	3.99237200
147.39999142	0.00000000	35.90059000	5.47490100
147.59999141	0.00000000	35.90059000	6.21924200
147.79999140	0.00000000	35.20546000	6.31151500
147.99999138	0.00000000	34.83022000	6.31151500
148.19999137	0.00000000	34.74409000	6.31151500
148.39999136	0.00000000	34.41191000	6.26845500
148.59999135	0.00000000	34.04282000	5.89320800
148.79999134	0.00000000	34.41191000	5.15501900
148.99999132	0.00000000	34.74409000	4.77977300
149.19999131	0.00000000	34.78716000	4.73671200
149.39999130	0.00000000	34.78716000	4.73671200
149.59999129	0.00000000	34.83022000	4.73671200
149.79999128	0.00000000	35.16240000	4.73671200
149.99999127	0.00000000	35.53149000	4.73671200
150.19999125	0.00000000	35.16240000	4.73671200
150.39999124	0.00000000	34.83022000	4.77977300
150.59999123	0.00000000	34.78716000	5.15501900
150.79999122	0.00000000	34.78716000	5.85014700
150.99999121	0.00000000	34.74409000	5.85014700
151.19999119	0.00000000	34.36884000	5.15501900
151.39999118	0.00000000	33.66756000	4.77977300
151.59999117	0.00000000	33.66756000	4.73671200
151.79999116	0.00000000	34.36884000	4.73671200
151.99999115	0.00000000	34.74409000	4.73671200
152.19999113	0.00000000	34.78716000	4.73671200
152.39999112	0.00000000	34.78716000	4.73671200
152.59999111	0.00000000	34.83022000	4.73671200
152.79999110	0.00000000	35.20546000	4.73671200
152.99999109	0.00000000	35.90059000	4.73671200
153.19999108	0.00000000	35.90059000	4.73671200
153.39999106	0.00000000	35.20546000	4.73671200
153.59999105	0.00000000	34.83022000	4.77977300
153.79999104	0.00000000	34.78716000	5.11195900
153.99999103	0.00000000	34.74409000	5.51796200
154.19999102	0.00000000	34.36884000	5.48105300
154.39999100	0.00000000	33.61835000	5.51796200
154.59999099	0.00000000	33.29232000	5.11195900
154.79999098	0.00000000	33.61835000	4.77977300
154.99999097	0.00000000	34.36884000	4.73671200
155.19999096	0.00000000	34.74409000	4.73671200
155.39999094	0.00000000	34.78716000	4.73671200
155.59999093	0.00000000	34.83022000	4.73671200
155.79999092	0.00000000	35.16240000	4.73671200
155.99999091	0.00000000	35.53149000	4.73671200
156.19999090	0.00000000	35.16240000	4.73671200
156.39999089	0.00000000	34.83022000	4.77977300
156.59999087	0.00000000	34.74409000	5.15501900
156.79999086	0.00000000	34.36884000	5.89320800
156.99999085	0.00000000	33.61835000	6.26845500
157.19999084	0.00000000	33.24311000	6.31151500
157.39999083	0.00000000	33.20005000	6.31151500
157.59999081	0.00000000	33.24311000	6.26845500
157.79999080	0.00000000	33.61835000	5.89320800
157.99999079	0.00000000	34.36884000	5.15501900
158.19999078	0.00000000	34.74409000	4.73671200
158.39999077	0.00000000	34.78716000	4.31840500
158.59999075	0.00000000	34.78716000	3.62327700
158.79999074	0.00000000	34.78716000	3.62327700
158.99999073	0.00000000	34.78716000	4.31840500
159.19999072	0.00000000	34.78716000	4.69365100
159.39999071	0.00000000	34.78716000	4.77977300
159.59999070	0.00000000	34.78716000	5.15501900
159.79999068	0.00000000	34.74409000	5.89320800
159.99999067	0.00000000	34.36884000	6.26845500
160.19999066	0.00000000	33.61835000	6.26845500
160.39999065	0.00000000	33.29232000	5.89320800
160.59999064	0.00000000	33.57529000	5.15501900
160.79999062	0.00000000	33.98745000	4.77977300
160.99999061	0.00000000	33.99975000	4.73671200
161.19999060	0.00000000	34.41191000	4.73671200
161.39999059	0.00000000	34.74409000	4.73671200
161.59999058	0.00000000	34.78716000	4.73671200
161.79999056	0.00000000	34.78716000	4.73671200
161.99999055	0.00000000	34.78716000	4.73671200
162.19999054	0.00000000	34.78716000	4.73671200
162.39999053	0.00000000	34.78716000	4.73671200
162.59999052	0.00000000	34.78716000	4.73671200
162.79999051	0.00000000	34.78716000	4.73671200
162.99999049	0.00000000	34.74409000	4.73671200
163.19999048	0.00000000	34.41191000	4.77977300
163.39999047	0.00000000	33.99975000	5.15501900
163.59999046	0.00000000	33.98745000	5.85014700
163.79999045	0.00000000	33.57529000	5.85014700
163.99999043	0.00000000	33.24311000	5.15501900
164.19999042	0.00000000	33.24311000	4.77977300
164.39999041	0.00000000	33.61835000	4.73671200
164.59999040	0.00000000	34.36884000	4.73671200
164.79999039	0.00000000	34.74409000	4.73671200
164.99999037	0.00000000	34.78716000	4.73671200
165.19999036	0.00000000	34.78716000	4.73671200
165.39999035	0.00000000	34.78716000	4.73671200
165.59999034	0.00000000	34.78716000	4.73671200
165.79999033	0.00000000	34.78716000	4.77977300
165.99999032	0.00000000	34.74409000	5.11195900
166.19999030	0.00000000	34.36884000	5.47490100
166.39999029	0.00000000	33.61835000	5.11195900
166.59999028	0.00000000	33.24311000	4.77977300
166.79999027	0.00000000	33.20005000	4.73671200
166.99999026	0.00000000	33.20005000	4.73671200
167.19999024	0.00000000	33.24311000	4.73671200
167.39999023	0.00000000	33.61835000	4.73671200
167.59999022	0.00000000	34.36884000	4.73671200
167.79999021	0.00000000	34.74409000	4.73671200
167.99999020	0.00000000	34.78716000	4.73671200
168.19999018	0.00000000	34.78716000	4.73671200
168.39999017	0.00000000	34.78716000	4.73671200
168.59999016	0.00000000	34.78716000	4.73671200
168.79999015	0.00000000	34.78716000	4.73671200
168.99999014	0.00000000	34.74409000	4.73671200
169.19999013	0.00000000	34.41191000	4.73671200
169.39999011	0.00000000	33.99975000	4.73671200
169.59999010	0.00000000	33.98745000	4.73671200
169.79999009	0.00000000	33.61835000	4.73671200
169.99999008	0.00000000	33.61835000	4.73671200
170.19999007	0.00000000	33.98745000	4.73671200
170.39999005	0.00000000	33.99975000	4.73671200
170.59999004	0.00000000	34.41191000	4.73671200
170.79999003	0.00000000	34.74409000	4.73671200
170.99999002	0.00000000	34.78716000	4.73671200
171.19999001	0.00000000	34.78716000	4.73671200
171.39998999	0.00000000	34.78716000	4.73671200
171.59998998	0.00000000	34.78716000	4.73671200
171.79998997	0.00000000	34.74409000	4.73671200
171.99998996	0.00000000	34.41191000	4.73671200
172.19998995	0.00000000	33.99975000	4.73671200
172.39998994	0.00000000	33.98745000	4.73671200
172.59998992	0.00000000	33.61835000	4.73671200
172.79998991	0.00000000	33.61835000	4.73671200
172.99998990	0.00000000	33.98745000	4.73671200
173.19998989	0.00000000	33.99975000	4.73671200
173.39998988	0.00000000	34.41191000	4.73671200
173.59998986	0.00000000	34.74409000	4.73671200
173.79998985	0.00000000	34.78716000	4.73671200
173.99998984	0.00000000	34.78716000	4.73671200
174.19998983	0.00000000	34.78716000	4.73671200
174.39998982	0.00000000	34.78716000	4.73671200
174.59998980	0.00000000	34.78716000	4.73671200
174.79998979	0.00000000	34.78716000	4.73671200
174.99998978	0.00000000	34.78716000	4.73671200
175.19998977	0.00000000	34.74409000	4.73671200
175.39998976	0.00000000	34.36884000	4.73671200
175.59998975	0.00000000	33.61835000	4.73671200
175.79998973	0.00000000	33.29232000	4.73671200
175.99998972	0.00000000	33.57529000	4.73671200
176.19998971	0.00000000	33.98745000	4.73671200
176.39998970	0.00000000	33.99975000	4.73671200
176.59998969	0.00000000	34.41191000	4.73671200
176.79998967	0.00000000	34.74409000	4.73671200
176.99998966	0.00000000	34.74409000	4.73671200
177.19998965	0.00000000	34.36884000	4.73671200
177.39998964	0.00000000	33.66756000	4.73671200
177.59998963	0.00000000	33.66756000	4.73671200
177.79998961	0.00000000	34.31963000	4.73671200
177.99998960	0.00000000	34.31963000	4.73671200
178.19998959	0.00000000	33.61835000	4.73671200
178.39998958	0.00000000	33.24311000	4.73671200
178.59998957	0.00000000	33.24311000	4.73671200
178.79998956	0.00000000	33.61835000	4.77977300
178.99998954	0.00000000	34.36884000	5.11195900
179.19998953	0.00000000	34.74409000	5.47490100
179.39998952	0.00000000	34.78716000	5.11195900
179.59998951	0.00000000	34.74409000	4.77977300
179.79998950	0.00000000	34.41191000	4.73671200
179.99998948	0.00000000	34.04282000	4.73671200
180.19998947	0.00000000	34.36884000	4.73671200
180.39998946	0.00000000	34.31963000	4.73671200
180.59998945	0.00000000	33.61835000	4.73671200
180.79998944	0.00000000	33.24311000	4.73671200
180.99998942	0.00000000	33.20005000	4.73671200
181.19998941	0.00000000	33.20005000	4.73671200
181.39998940	0.00000000	33.24311000	4.73671200
181.59998939	0.00000000	33.57529000	4.73671200
181.79998938	0.00000000	33.94439000	4.73671200
181.99998937	0.00000000	33.61835000	4.73671200
182.19998935	0.00000000	33.66756000	4.73671200
182.39998934	0.00000000	34.31963000	4.73671200
182.59998933	0.00000000	34.31963000	4.73671200
182.79998932	0.00000000	33.66756000	4.73671200
182.99998931	0.00000000	33.61835000	4.69365100
183.19998929	0.00000000	33.94439000	4.36146600
183.39998928	0.00000000	33.61835000	3.99237200
183.59998927	0.00000000	33.61835000	4.36146600
183.79998926	0.00000000	33.94439000	4.69365100
183.99998925	0.00000000	33.57529000	4.73671200
184.19998923	0.00000000	33.24311000	4.73671200
184.39998922	0.00000000	33.20005000	4.77977300
184.59998921	0.00000000	33.20005000	5.11195900
184.79998920	0.00000000	33.20005000	5.51796200
184.99998919	0.00000000	33.24311000	5.53026500
185.19998918	0.00000000	33.61835000	5.93626900
185.39998916	0.00000000	34.31963000	6.21924200
185.59998915	0.00000000	34.36884000	5.89320800
185.79998914	0.00000000	34.04282000	5.15501900
185.99998913	0.00000000	34.41191000	4.73671200
186.19998912	0.00000000	34.69488000	4.31840500
186.39998910	0.00000000	34.36884000	3.62327700
186.59998909	0.00000000	33.61835000	3.57406500
186.79998908	0.00000000	33.24311000	3.94315900
186.99998907	0.00000000	33.20005000	3.94931100
187.19998906	0.00000000	33.20005000	4.36146600
187.39998904	0.00000000	33.20005000	4.73671200
187.59998903	0.00000000	33.20005000	5.15501900
187.79998902	0.00000000	33.20005000	5.89320800
187.99998901	0.00000000	33.20005000	6.21924200
188.19998900	0.00000000	33.24311000	5.89320800
188.39998899	0.00000000	33.61835000	5.15501900
188.59998897	0.00000000	34.36884000	4.77977300
188.79998896	0.00000000	34.74409000	4.69365100
188.99998895	0.00000000	34.78716000	4.31840500
189.19998894	0.00000000	34.74409000	3.62327700
189.39998893	0.00000000	34.41191000	3.62327700
189.59998891	0.00000000	33.99975000	4.31840500
189.79998890	0.00000000	33.98745000	4.69365100
189.99998889	0.00000000	33.57529000	4.73671200
190.19998888	0.00000000	33.24311000	4.73671200
190.39998887	0.00000000	33.20005000	4.73671200
190.59998885	0.00000000	33.20005000	4.73671200
190.79998884	0.00000000	33.20005000	4.73671200
190.99998883	0.00000000	33.20005000	4.73671200
191.19998882	0.00000000	33.20005000	4.73671200
191.39998881	0.00000000	33.20005000	4.73671200
191.59998880	0.00000000	33.24311000	4.73671200
191.79998878	0.00000000	33.61835000	4.73671200
191.99998877	0.00000000	34.31963000	4.73671200
192.19998876	0.00000000	34.31963000	4.73671200
192.39998875	0.00000000	33.61835000	4.73671200
192.59998874	0.00000000	33.24311000	4.73671200
192.79998872	0.00000000	33.20005000	4.73671200
192.99998871	0.00000000	33.20005000	4.73671200
193.19998870	0.00000000	33.20005000	4.73671200
193.39998869	0.00000000	33.20005000	4.73671200
193.59998868	0.00000000	33.20005000	4.73671200
193.79998866	0.00000000	33.20005000	4.73671200
193.99998865	0.00000000	33.20005000	4.73671200
194.19998864	0.00000000	33.20005000	4.73671200
194.39998863	0.00000000	33.24311000	4.73671200
194.59998862	0.00000000	33.61835000	4.73671200
194.79998861	0.00000000	34.31963000	4.73671200
194.99998859	0.00000000	34.31963000	4.73671200
195.19998858	0.00000000	33.66756000	4.73671200
195.39998857	0.00000000	33.61835000	4.73671200
195.59998856	0.00000000	33.94439000	4.73671200
195.79998855	0.00000000	33.57529000	4.73671200
195.99998853	0.00000000	33.24311000	4.73671200
