Time	Channel A	Channel B	Channel C
(us)	(V)	(mV)	(mV)

-4.49999956	0.00000000	6.32381900	8.26771600
-4.29999957	0.00000000	6.32381900	7.93553100
-4.09999958	0.00000000	6.32381900	7.89247000
-3.89999959	0.00000000	6.32381900	7.89247000
-3.69999960	0.00000000	6.32381900	7.89247000
-3.49999962	0.00000000	6.32381900	7.89247000
-3.29999963	0.00000000	6.32381900	7.89247000
-3.09999964	0.00000000	6.32381900	7.89247000
-2.89999965	0.00000000	6.32381900	7.89247000
-2.69999966	0.00000000	6.32381900	7.89247000
-2.49999968	0.00000000	6.32381900	7.89247000
-2.29999969	0.00000000	6.32381900	7.89247000
-2.09999970	0.00000000	6.32381900	7.89247000
-1.89999971	0.00000000	6.32381900	7.89247000
-1.69999972	0.00000000	6.32381900	7.89247000
-1.49999973	0.00000000	6.32381900	7.89247000
-1.29999975	0.00000000	6.32381900	7.89247000
-1.09999976	0.00000000	6.32381900	7.89247000
-0.89999977	0.00000000	6.32381900	7.89247000
-0.69999978	0.00000000	6.32381900	7.89247000
-0.49999979	0.00000000	6.32381900	7.89247000
-0.29999981	0.31803640	6.32381900	7.89247000
-0.09999982	0.63668800	6.32381900	7.89247000
0.10000017	0.95533960	6.32381900	7.89247000
0.30000016	0.95533960	6.32381900	7.89247000
0.50000015	0.79601380	6.32381900	7.89247000
0.70000013	0.31803640	6.32381900	7.89247000
0.90000012	-0.63668800	6.32381900	7.89247000
1.10000011	-1.59264300	6.32381900	7.89247000
1.30000010	-2.38927200	6.32381900	7.89247000
1.50000009	-2.70792300	6.32381900	7.89247000
1.70000008	-2.38927200	6.32381900	7.93553100
1.90000006	-1.11466500	6.32381900	8.26771600
2.10000005	0.79601380	6.32381900	8.63681000
2.30000004	2.86724900	6.32381900	8.26771600
2.50000003	4.61921700	6.36687900	7.93553100
2.70000002	5.41584600	6.69906400	7.89247000
2.90000000	4.77854300	7.06815900	7.89247000
3.09999999	2.70792300	6.69906400	7.89247000
3.29999998	-0.47736220	6.36687900	7.89247000
3.49999997	-3.82258900	6.32381900	7.89247000
3.69999996	-6.69045300	6.32381900	7.93553100
3.89999994	-7.96444400	6.32381900	8.31077700
4.09999993	-7.32714100	6.32381900	9.05511800
4.29999992	-4.61921700	6.32381900	9.43036400
4.49999991	-0.63668800	6.32381900	9.43036400
4.69999990	3.82258900	6.32381900	9.05511800
4.89999989	7.48646600	6.32381900	8.31077700
5.09999987	9.39837600	6.32381900	7.93553100
5.29999986	8.92039900	6.32381900	7.89247000
5.49999985	6.21247500	6.32381900	7.89247000
5.69999984	1.91129400	6.32381900	7.89247000
5.89999983	-2.86724900	6.32381900	7.89247000
6.09999981	-7.00848900	6.32381900	7.89247000
6.29999980	-9.23905000	6.32381900	7.93553100
6.49999979	-9.07972400	6.32381900	8.31077700
6.69999978	-6.69045300	6.32381900	9.05511800
6.89999977	-2.86724900	6.32381900	9.43036400
7.09999975	1.43331700	6.32381900	9.43036400
7.29999974	5.09719500	6.32381900	9.05511800
7.49999973	7.32714100	6.32381900	8.31077700
7.69999972	7.64579200	6.32381900	7.93553100
7.89999971	6.05315000	6.32381900	7.89247000
8.09999970	3.18590100	6.32381900	7.89247000
8.29999968	-0.15871060	6.32381900	7.89247000
8.49999967	-3.18590100	6.32381900	7.89247000
8.69999966	-4.77854300	6.32381900	7.89247000
8.89999965	-5.09719500	6.32381900	7.89247000
9.09999964	-4.30056600	6.32381900	7.93553100
9.29999962	-2.38927200	6.32381900	8.26771600
9.49999961	-0.47736220	6.32381900	8.63681000
9.69999960	1.27399100	6.32381900	8.26771600
9.89999959	2.22994600	6.32381900	7.93553100
10.09999958	2.54859700	6.32381900	7.89247000
10.29999956	2.22994600	6.32381900	7.89247000
10.49999955	1.27399100	6.32381900	7.89247000
10.69999954	0.47736220	6.32381900	7.89247000
10.89999953	-0.31803640	6.32381900	7.89247000
11.09999952	-0.79601380	6.32381900	7.89247000
11.29999951	-0.95533960	6.36687900	7.93553100
11.49999949	-0.95533960	6.69906400	8.31077700
11.69999948	-0.63668800	7.06815900	9.05511800
11.89999947	-0.31803640	6.69906400	9.38115100
12.09999946	-0.15871060	6.36687900	9.09817800
12.29999945	-0.15871060	6.32381900	8.72908400
12.49999943	-0.15871060	6.32381900	9.05511800
12.69999942	0.00000000	6.32381900	9.00590400
12.89999941	0.00000000	6.32381900	8.31077700
13.09999940	0.15871060	6.32381900	7.93553100
13.29999939	0.00000000	6.32381900	7.89247000
13.49999937	0.00000000	6.32381900	7.89247000
13.69999936	0.00000000	6.32381900	7.89247000
13.89999935	0.00000000	6.32381900	7.89247000
14.09999934	-0.15871060	6.32381900	7.89247000
14.29999933	-0.15871060	6.32381900	7.89247000
14.49999932	-0.15871060	6.32381900	7.89247000
14.69999930	0.00000000	6.32381900	7.89247000
14.89999929	0.00000000	6.32381900	7.89247000
15.09999928	0.00000000	6.32381900	7.89247000
15.29999927	0.00000000	6.32381900	7.89247000
15.49999926	0.00000000	6.32381900	7.89247000
15.69999924	0.00000000	6.32381900	7.89247000
15.89999923	0.00000000	6.32381900	7.89247000
16.09999922	0.00000000	6.32381900	7.89247000
16.29999921	0.00000000	6.36687900	7.89247000
16.49999920	-0.15871060	6.74212600	7.89247000
16.69999919	0.00000000	7.48646600	7.89247000
16.89999917	0.00000000	7.86171200	7.89247000
17.09999916	0.00000000	7.90477300	7.89247000
17.29999915	0.00000000	7.90477300	7.89247000
17.49999914	0.00000000	7.90477300	7.89247000
17.69999913	0.00000000	7.86171200	7.89247000
17.89999911	0.00000000	7.43725300	7.89247000
18.09999910	0.00000000	6.28075700	7.89247000
18.29999909	0.00000000	4.78592500	7.89247000
18.49999908	0.00000000	3.58021600	7.89247000
18.69999907	0.00000000	2.78666300	7.89247000
18.89999905	0.00000000	2.04847400	7.89247000
19.09999904	0.00000000	2.09153500	7.89247000
19.29999903	0.00000000	3.29724400	7.89247000
19.49999902	0.00000000	5.67175200	7.89247000
19.69999901	0.00000000	9.52879000	7.89247000
19.89999900	0.00000000	13.71801000	7.89247000
20.09999898	0.00000000	16.83686000	7.89247000
20.29999897	0.00000000	18.32554000	7.89247000
20.49999896	0.00000000	17.48893000	7.89247000
20.69999895	0.00000000	13.58268000	7.89247000
20.89999894	0.00000000	7.39419200	7.89247000
21.09999892	0.00000000	0.00000000	7.89247000
21.29999891	0.00000000	-7.30807100	7.89247000
21.49999890	0.00000000	-12.65379000	7.89247000
21.69999889	0.00000000	-14.09941000	7.89247000
21.89999888	0.00000000	-10.56225000	7.89247000
22.09999886	0.00000000	-2.05462600	7.89247000
22.29999885	0.00000000	9.57800100	7.89247000
22.49999884	0.00000000	21.95497000	7.89247000
22.69999883	0.00000000	32.70177000	7.89247000
22.89999882	0.00000000	38.38583000	7.89247000
23.09999881	0.00000000	36.79872000	7.93553100
23.29999879	0.00000000	27.86663000	8.31077700
23.49999878	0.00000000	13.12131000	9.09817800
23.69999877	0.00000000	-4.65059000	9.84867000
23.89999876	0.00000000	-21.58587000	10.58686000
24.09999875	0.00000000	-33.08317000	10.58686000
24.29999873	0.00000000	-35.78371000	9.84867000
24.49999872	0.00000000	-28.75861000	9.05511800
24.69999871	0.00000000	-13.26279000	7.80019600
24.89999870	0.00000000	7.99704600	5.93626900
25.09999869	0.00000000	29.95817000	4.03543200
25.29999867	0.00000000	47.35482000	3.24803100
25.49999866	0.00000000	56.20078000	3.24803100
25.69999865	0.00000000	54.15231000	4.08464600
25.89999864	0.00000000	40.61269000	6.44685000
26.09999863	0.00000000	18.33169000	9.93479300
26.29999862	0.00000000	-6.42224400	14.16708000
26.49999860	0.00000000	-28.10654000	17.97490000
26.69999859	0.00000000	-42.75959000	19.88189000
26.89999858	0.00000000	-46.16142000	19.46358000
27.09999857	0.00000000	-37.36466000	16.30167000
27.29999856	0.00000000	-18.79921000	10.49459000
27.49999854	0.00000000	5.11811000	3.15575800
27.69999853	0.00000000	29.07234000	-4.18307100
27.89999852	0.00000000	47.22564000	-9.94094400
28.09999851	0.00000000	55.82554000	-12.54921000
28.29999850	0.00000000	53.50024000	-10.54995000
28.49999848	0.00000000	41.16634000	-3.58636800
28.69999847	0.00000000	21.49360000	6.82209600
28.89999846	0.00000000	-0.47367120	18.43627000
29.09999845	0.00000000	-19.49434000	28.89395000
29.29999844	0.00000000	-31.92052000	36.14665000
29.49999843	0.00000000	-35.82677000	37.99828000
29.69999841	0.00000000	-30.47490000	32.94168000
29.89999840	0.00000000	-17.77190000	22.11491000
30.09999839	0.00000000	-1.11343500	7.38188900
30.29999838	0.00000000	16.28322000	-8.36614100
30.49999837	0.00000000	30.61023000	-21.09375000
30.69999835	0.00000000	38.80413000	-27.69439000
30.89999834	0.00000000	40.05290000	-27.27608000
31.09999833	0.00000000	34.61491000	-19.46973000
31.29999832	0.00000000	23.81275000	-5.16117100
31.49999831	0.00000000	9.90403500	12.58612000
31.69999829	0.00000000	-3.58636800	29.95817000
31.89999828	0.00000000	-13.72416000	43.06717000
32.09999827	0.00000000	-18.79921000	48.87426000
32.29999826	0.00000000	-18.46703000	46.17987000
32.49999825	0.00000000	-13.07210000	35.72219000
32.69999824	0.00000000	-4.18922200	19.50664000
32.89999822	0.00000000	6.28075700	0.97194880
33.09999821	0.00000000	16.32628000	-15.66191000
33.29999820	0.00000000	23.67741000	-27.27608000
33.49999819	0.00000000	26.79626000	-31.50221000
33.69999818	0.00000000	25.25836000	-27.27608000
33.89999816	0.00000000	19.53125000	-15.70497000
34.09999815	0.00000000	11.44193000	0.51058070
34.29999814	0.00000000	3.29724400	17.88263000
34.49999813	0.00000000	-3.63558100	32.56643000
34.69999812	0.00000000	-7.44955700	41.48622000
34.89999810	0.00000000	-6.79749000	43.02411000
35.09999809	0.00000000	-2.98351400	36.88484000
35.29999808	0.00000000	2.46678100	24.57554000
35.49999807	0.00000000	8.97514600	9.52263600
35.69999806	0.00000000	14.37008000	-5.16117100
35.89999805	0.00000000	17.07677000	-16.31397000
36.09999803	0.00000000	17.11368000	-20.95841000
36.29999802	0.00000000	14.00098000	-18.35630000
36.49999801	0.00000000	9.06742000	-9.89788300
36.69999800	0.00000000	3.67249000	2.04232300
36.89999799	0.00000000	-0.55979330	14.72072000
37.09999797	0.00000000	-2.51599400	24.71087000
37.29999796	0.00000000	-2.14074800	29.40452000
37.49999795	0.00000000	0.55364170	28.29109000
37.69999794	0.00000000	4.78592500	22.10876000
37.89999793	0.00000000	9.44266700	12.16781000
38.09999791	0.00000000	13.63189000	1.48253000
38.29999790	0.00000000	15.95103000	-6.18848400
38.49999789	0.00000000	15.63115000	-8.92593500
38.69999788	0.00000000	13.71801000	-6.23154500
38.89999787	0.00000000	10.55610000	1.01501000
39.09999786	0.00000000	6.32381900	10.58686000
39.29999784	0.00000000	2.09153500	19.37131000
39.49999783	0.00000000	-1.02731300	24.76009000
39.69999782	0.00000000	-2.56520700	25.08612000
39.89999781	0.00000000	-2.18996000	20.15871000
40.09999780	0.00000000	0.13533460	11.33120000
40.29999778	0.00000000	3.58021600	1.75319900
40.49999777	0.00000000	7.48646600	-6.32381900
40.69999776	0.00000000	10.97441000	-10.50074000
40.89999775	0.00000000	13.76107000	-9.38730200
41.09999774	0.00000000	15.63115000	-3.58021600
41.29999772	0.00000000	15.99409000	5.62253900
41.49999771	0.00000000	14.09326000	15.97564000
41.69999770	0.00000000	11.06668000	24.02190000
41.89999769	0.00000000	7.86171200	27.92200000
42.09999768	0.00000000	4.36761800	26.75935000
42.29999767	0.00000000	0.92888770	21.03838000
42.49999765	0.00000000	-0.98425190	12.58612000
42.69999764	0.00000000	-1.02731300	3.70939900
42.89999763	0.00000000	0.46751960	-3.58636800
43.09999762	0.00000000	2.78666300	-7.43725300
43.29999761	0.00000000	5.11811000	-6.74212600
43.49999759	0.00000000	7.48646600	-2.55905500
43.69999758	0.00000000	9.39345400	3.57406500
43.89999757	0.00000000	10.59916000	10.11934000
44.09999756	0.00000000	11.02362000	15.18824000
44.29999755	0.00000000	11.06668000	18.30093000
44.49999753	0.00000000	11.06668000	19.08834000
44.69999752	0.00000000	11.06668000	17.18750000
44.89999751	0.00000000	11.02362000	13.74262000
45.09999750	0.00000000	10.59916000	9.47342500
45.29999749	0.00000000	9.44266700	5.29035400
45.49999748	0.00000000	7.86171200	2.54675200
45.69999746	0.00000000	5.81323800	1.71013800
45.89999745	0.00000000	2.74360200	2.08538400
46.09999744	0.00000000	-0.69512790	3.66633800
46.29999743	0.00000000	-2.98351400	6.31151500
46.49999742	0.00000000	-3.72170300	9.00590400
46.69999740	0.00000000	-2.09768700	10.96211000
46.89999739	0.00000000	2.13459600	12.16166000
47.09999738	0.00000000	7.94783400	12.53691000
47.29999737	0.00000000	14.13632000	12.11860000
47.49999736	0.00000000	19.58046000	10.58686000
47.69999734	0.00000000	22.98228000	8.31077700
47.89999733	0.00000000	23.30216000	6.36072800
48.09999732	0.00000000	19.39591000	4.77977300
48.29999731	0.00000000	12.09400000	3.66633800
48.49999730	0.00000000	3.20497000	3.66633800
48.69999729	0.00000000	-5.25959600	4.82283400
48.89999727	0.00000000	-11.02977000	6.77903500
49.09999726	0.00000000	-12.56767000	9.51648500
49.29999725	0.00000000	-9.44881800	12.53691000
49.49999724	0.00000000	-2.14074800	14.81299000
49.69999723	0.00000000	7.48646600	15.23130000
49.89999721	0.00000000	16.74459000	14.07480000
50.09999720	0.00000000	23.72047000	11.70029000
50.29999719	0.00000000	26.74705000	7.84940900
50.49999718	0.00000000	24.84006000	3.66633800
50.69999717	0.00000000	18.32554000	0.59670270
50.89999715	0.00000000	9.48572700	-0.55979330
51.09999714	0.00000000	0.55364170	0.55364170
51.29999713	0.00000000	-6.74827700	3.24803100
51.49999712	0.00000000	-10.56225000	6.77903500
51.69999711	0.00000000	-9.44881800	11.00517000
51.89999710	0.00000000	-4.09694900	14.85605000
52.09999708	0.00000000	3.58021600	17.13829000
52.29999707	0.00000000	11.67569000	17.55044000
52.49999706	0.00000000	17.81496000	15.60654000
52.69999705	0.00000000	20.55856000	12.16166000
52.89999704	0.00000000	19.39591000	7.89247000
53.09999702	0.00000000	14.78838000	3.70939900
53.29999701	0.00000000	7.90477300	1.01501000
53.49999700	0.00000000	1.02116100	0.59670270
53.69999699	0.00000000	-3.58636800	2.08538400
53.89999698	0.00000000	-4.79207600	4.77977300
54.09999696	0.00000000	-2.51599400	7.84940900
54.29999695	0.00000000	2.09153500	10.53765000
54.49999694	0.00000000	7.86171200	12.07554000
54.69999693	0.00000000	13.20743000	12.11860000
54.89999692	0.00000000	16.28322000	10.96211000
55.09999691	0.00000000	16.32628000	9.09817800
55.29999689	0.00000000	13.67495000	7.19734200
55.49999688	0.00000000	9.44266700	6.40378900
55.69999687	0.00000000	4.83513700	6.40378900
55.89999686	0.00000000	0.97194880	7.24040300
56.09999685	0.00000000	-0.98425190	9.47342500
56.29999683	0.00000000	-0.98425190	11.70029000
56.49999682	0.00000000	0.97194880	12.45079000
56.69999681	0.00000000	4.78592500	11.70029000
56.89999680	0.00000000	8.97514600	9.33809000
57.09999679	0.00000000	12.09400000	5.89320800
57.29999677	0.00000000	13.67495000	2.12844500
57.49999676	0.00000000	13.67495000	-0.14148620
57.69999675	0.00000000	12.09400000	0.22145670
57.89999674	0.00000000	9.06742000	2.54675200
58.09999673	0.00000000	5.62869100	6.82209600
58.29999672	0.00000000	3.34030500	12.21087000
58.49999670	0.00000000	2.46678100	17.18750000
58.69999669	0.00000000	2.87893700	20.62008000
58.89999668	0.00000000	3.99852300	20.95226000
59.09999667	0.00000000	5.94857300	17.88263000
59.29999666	0.00000000	7.81250000	12.11860000
59.49999664	0.00000000	9.01820900	5.20423200
59.69999663	0.00000000	9.39345400	-0.97810030
59.89999662	0.00000000	9.01820900	-5.20423200
60.09999661	0.00000000	7.86171200	-6.32381900
60.29999660	0.00000000	6.36687900	-3.58636800
60.49999658	0.00000000	5.25344500	2.54675200
60.69999657	0.00000000	5.21038300	10.58686000
60.89999656	0.00000000	5.94857300	17.92569000
61.09999655	0.00000000	6.74212600	22.95152000
61.29999654	0.00000000	7.90477300	24.85236000
61.49999653	0.00000000	9.01820900	22.52707000
61.69999651	0.00000000	9.39345400	16.76919000
61.89999650	0.00000000	9.01820900	9.00590400
62.09999649	0.00000000	7.86171200	0.55364170
62.29999648	0.00000000	6.32381900	-6.32381900
62.49999647	0.00000000	4.74286400	-9.43036400
62.69999645	0.00000000	3.25418300	-8.31692900
62.89999644	0.00000000	2.50984200	-3.67249000
63.09999643	0.00000000	3.29724400	3.66633800
63.29999642	0.00000000	5.16117100	12.11860000
63.49999641	0.00000000	7.48646600	19.42052000
63.69999639	0.00000000	9.44266700	23.68971000
63.89999638	0.00000000	11.02362000	24.10802000
64.09999637	0.00000000	12.13706000	21.08760000
64.29999636	0.00000000	12.09400000	15.64960000
64.49999635	0.00000000	10.55610000	9.09817800
64.69999634	0.00000000	7.90477300	2.50369100
64.89999632	0.00000000	5.21038300	-2.46678100
65.09999631	0.00000000	3.25418300	-4.82898600
65.29999630	0.00000000	2.09153500	-4.09079700
65.49999629	0.00000000	2.13459600	-1.07037400
65.69999628	0.00000000	3.62942900	3.20497000
65.89999626	0.00000000	5.90551100	7.84940900
66.09999625	0.00000000	7.86171200	12.16166000
66.29999624	0.00000000	9.39345400	15.64960000
66.49999623	0.00000000	10.13779000	17.97490000
66.69999622	0.00000000	9.39345400	18.35015000
66.89999620	0.00000000	7.86171200	16.90453000
67.09999619	0.00000000	5.99163300	14.58538000
67.29999618	0.00000000	4.46604300	12.16781000
67.49999617	0.00000000	4.45989200	9.05511800
67.69999616	0.00000000	5.21038300	5.57332700
67.89999615	0.00000000	6.79133800	2.82972400
68.09999613	0.00000000	9.06742000	0.46751960
68.29999612	0.00000000	10.97441000	-1.02116100
68.49999611	0.00000000	12.09400000	-0.97810030
68.69999610	0.00000000	11.67569000	0.92888770
68.89999609	0.00000000	9.39345400	4.40452700
69.09999607	0.00000000	6.28075700	8.31077700
69.29999606	0.00000000	2.78666300	12.62918000
69.49999605	0.00000000	-0.60900590	16.81225000
69.69999604	0.00000000	-2.09768700	19.50664000
69.89999603	0.00000000	-0.98425190	19.88189000
70.09999601	0.00000000	2.13459600	17.93184000
70.29999600	0.00000000	6.74212600	13.69956000
70.49999599	0.00000000	11.76181000	8.31077700
70.69999598	0.00000000	15.63115000	3.29109200
70.89999597	0.00000000	17.95029000	-0.60285430
71.09999596	0.00000000	17.86417000	-2.50984200
71.29999594	0.00000000	14.83760000	-2.14074800
71.49999593	0.00000000	9.81791200	0.55364170
71.69999592	0.00000000	4.41067900	4.77977300
71.89999591	0.00000000	-0.65206690	9.43036400
72.09999590	0.00000000	-4.09694900	13.65650000
72.29999588	0.00000000	-5.25959600	16.35089000
72.49999587	0.00000000	-3.67864200	16.76919000
72.69999586	0.00000000	0.55364170	15.27436000
72.89999585	0.00000000	6.28075700	12.58612000
73.09999584	0.00000000	11.71875000	9.51648500
73.29999582	0.00000000	15.58194000	6.82209600
73.49999581	0.00000000	17.57505000	5.29035400
73.69999580	0.00000000	17.16289000	5.24729300
73.89999579	0.00000000	14.88066000	6.36072800
74.09999578	0.00000000	10.97441000	7.84940900
74.29999577	0.00000000	6.36687900	9.00590400
74.49999575	0.00000000	2.13459600	9.38115100
74.69999574	0.00000000	-0.55979330	9.00590400
74.89999573	0.00000000	-1.02731300	7.84940900
75.09999572	0.00000000	0.13533460	6.36072800
75.29999571	0.00000000	2.46678100	5.24729300
75.49999569	0.00000000	5.90551100	5.24729300
75.69999568	0.00000000	8.93208600	6.40378900
75.89999567	0.00000000	10.55610000	8.40305000
76.09999566	0.00000000	10.97441000	11.46653000
76.29999565	0.00000000	10.59916000	14.85605000
76.49999563	0.00000000	9.48572700	16.76919000
76.69999562	0.00000000	8.32308000	16.76919000
76.89999561	0.00000000	7.52952700	14.76993000
77.09999560	0.00000000	6.79133800	10.53765000
77.29999559	0.00000000	6.79133800	5.19808000
77.49999558	0.00000000	7.48646600	0.55364170
77.69999556	0.00000000	7.81250000	-2.51599400
77.89999555	0.00000000	7.43725300	-3.29724400
78.09999554	0.00000000	6.32381900	-1.35334600
78.29999553	0.00000000	5.16117100	2.50369100
78.49999552	0.00000000	4.36761800	7.93553100
78.69999550	0.00000000	3.62942900	13.69956000
78.89999549	0.00000000	3.67249000	18.35015000
79.09999548	0.00000000	4.83513700	20.99532000
79.29999547	0.00000000	6.74212600	20.62008000
79.49999546	0.00000000	9.06742000	17.23056000
79.69999544	0.00000000	10.97441000	12.58612000
79.89999543	0.00000000	12.13706000	7.51722400
80.09999542	0.00000000	12.09400000	2.50369100
80.29999541	0.00000000	10.59916000	-0.97810030
80.49999540	0.00000000	8.28001900	-2.55905500
80.69999539	0.00000000	5.94857300	-2.14074800
80.89999537	0.00000000	3.62942900	0.55364170
81.09999536	0.00000000	2.09153500	4.73671200
81.29999535	0.00000000	1.71628900	9.00590400
81.49999534	0.00000000	2.50984200	12.58612000
81.69999533	0.00000000	4.83513700	15.69882000
81.89999531	0.00000000	7.86171200	17.97490000
82.09999530	0.00000000	10.55610000	18.35015000
82.29999529	0.00000000	12.09400000	16.85531000
82.49999528	0.00000000	12.13706000	14.11786000
82.69999527	0.00000000	11.02362000	10.62992000
82.89999525	0.00000000	9.48572700	6.72982200
83.09999524	0.00000000	7.90477300	3.24803100
83.29999523	0.00000000	6.36687900	0.51058070
83.49999522	0.00000000	5.21038300	-1.02116100
83.69999521	0.00000000	4.78592500	-1.02116100
83.89999520	0.00000000	4.78592500	0.55364170
84.09999518	0.00000000	5.16117100	3.66633800
84.29999517	0.00000000	5.90551100	7.89247000
84.49999516	0.00000000	6.32381900	12.16166000
84.69999515	0.00000000	6.74212600	15.64960000
84.89999514	0.00000000	7.48646600	17.97490000
85.09999512	0.00000000	7.86171200	18.35015000
85.29999511	0.00000000	7.94783400	16.81225000
85.49999510	0.00000000	8.32308000	13.65650000
85.69999509	0.00000000	9.06742000	9.00590400
85.89999508	0.00000000	9.44266700	3.66633800
86.09999506	0.00000000	9.44266700	-0.55979330
86.29999505	0.00000000	9.01820900	-2.50984200
86.49999504	0.00000000	7.86171200	-2.14074800
86.69999503	0.00000000	6.36687900	0.55364170
86.89999502	0.00000000	5.16117100	4.77977300
87.09999501	0.00000000	4.36761800	9.47342500
87.29999499	0.00000000	3.62942900	14.11786000
87.49999498	0.00000000	3.67249000	17.93184000
87.69999497	0.00000000	4.78592500	19.42052000
87.89999496	0.00000000	6.32381900	17.93184000
88.09999495	0.00000000	7.90477300	14.07480000
88.29999493	0.00000000	9.44266700	9.09817800
88.49999492	0.00000000	10.55610000	4.08464600
88.69999491	0.00000000	10.55610000	0.59670270
88.89999490	0.00000000	9.44266700	-0.93503930
89.09999489	0.00000000	7.90477300	-0.14148620
89.29999487	0.00000000	6.32381900	3.29109200
89.49999486	0.00000000	4.78592500	7.89247000
89.69999485	0.00000000	3.67249000	12.53691000
89.89999484	0.00000000	3.67249000	16.39395000
90.09999483	0.00000000	4.74286400	18.25787000
90.29999482	0.00000000	5.90551100	17.50738000
90.49999480	0.00000000	6.74212600	14.03174000
90.69999479	0.00000000	7.90477300	9.09817800
90.89999478	0.00000000	9.01820900	4.08464600
91.09999477	0.00000000	9.39345400	0.64591530
91.29999476	0.00000000	9.06742000	-0.55979330
91.49999474	0.00000000	8.32308000	0.64591530
91.69999473	0.00000000	7.94783400	4.08464600
91.89999472	0.00000000	7.90477300	9.05511800
92.09999471	0.00000000	7.90477300	13.65650000
92.29999470	0.00000000	7.90477300	16.72613000
92.49999468	0.00000000	7.86171200	17.50738000
92.69999467	0.00000000	7.48646600	15.56348000
92.89999466	0.00000000	6.74212600	11.74336000
93.09999465	0.00000000	6.32381900	6.77903500
93.29999464	0.00000000	5.90551100	2.59596400
93.49999463	0.00000000	5.16117100	0.59670270
93.69999461	0.00000000	4.83513700	0.59670270
93.89999460	0.00000000	5.21038300	2.54675200
94.09999459	0.00000000	6.36687900	6.40378900
94.29999458	0.00000000	7.94783400	10.95595000
94.49999457	0.00000000	9.86097400	14.76993000
94.69999455	0.00000000	11.76181000	16.30167000
94.89999454	0.00000000	12.51230000	15.23130000
95.09999453	0.00000000	12.13706000	12.53691000
95.29999452	0.00000000	10.55610000	9.05511800
95.49999451	0.00000000	7.86171200	5.19808000
95.69999449	0.00000000	4.78592500	2.17765700
95.89999448	0.00000000	2.09153500	1.01501000
96.09999447	0.00000000	0.55364170	2.12844500
96.29999446	0.00000000	0.51058070	4.77977300
96.49999445	0.00000000	1.71628900	7.89247000
96.69999444	0.00000000	4.04773600	10.96211000
96.89999442	0.00000000	7.57258800	13.23819000
97.09999441	0.00000000	11.34966000	13.65650000
97.29999440	0.00000000	14.46235000	12.53691000
97.49999439	0.00000000	15.63115000	10.58686000
97.69999438	0.00000000	15.29897000	7.93553100
97.89999436	0.00000000	13.63189000	5.66560000
98.09999435	0.00000000	10.18086000	4.82898600
98.29999434	0.00000000	5.57947800	4.77977300
98.49999433	0.00000000	1.75935000	5.24729300
98.69999432	0.00000000	-0.60900590	6.72982200
98.89999430	0.00000000	-1.02731300	8.63681000
99.09999429	0.00000000	0.09227362	9.75639700
99.29999428	0.00000000	2.09153500	10.21161000
99.49999427	0.00000000	5.21038300	9.84867000
99.69999426	0.00000000	9.01820900	9.51648500
99.89999425	0.00000000	12.13706000	9.47342500
100.09999423	0.00000000	14.09326000	9.51648500
100.29999422	0.00000000	14.88066000	9.84867000
100.49999421	0.00000000	14.05020000	10.21161000
100.69999420	0.00000000	11.76181000	9.84867000
100.89999419	0.00000000	8.32308000	9.47342500
101.09999417	0.00000000	5.25344500	9.00590400
101.29999416	0.00000000	3.20497000	7.84940900
101.49999415	0.00000000	1.67322800	6.36072800
101.69999414	0.00000000	0.92888770	5.19808000
101.89999413	0.00000000	1.71628900	4.82898600
102.09999411	0.00000000	3.58021600	5.24729300
102.29999410	0.00000000	5.94857300	6.72982200
102.49999409	0.00000000	8.28001900	8.67987200
102.69999408	0.00000000	10.59916000	10.31004000
102.89999407	0.00000000	12.13706000	12.62918000
103.09999406	0.00000000	12.51230000	14.76993000
103.29999404	0.00000000	11.76181000	14.81299000
103.49999403	0.00000000	9.86097400	12.91215000
103.69999402	0.00000000	7.94783400	10.21161000
103.89999401	0.00000000	6.32381900	6.72982200
104.09999400	0.00000000	4.78592500	3.75246000
104.29999398	0.00000000	3.67249000	2.50369100
104.49999397	0.00000000	3.67249000	2.87278500
104.69999396	0.00000000	4.78592500	4.03543200
104.89999395	0.00000000	6.32381900	6.40378900
105.09999394	0.00000000	7.86171200	9.42421200
105.29999392	0.00000000	9.01820900	12.11860000
105.49999391	0.00000000	9.44266700	13.65650000
105.69999390	0.00000000	9.48572700	13.69956000
105.89999389	0.00000000	9.39345400	12.53691000
106.09999388	0.00000000	8.64911400	10.62992000
106.29999387	0.00000000	7.16043300	8.31077700
106.49999385	0.00000000	6.36687900	6.40378900
106.69999384	0.00000000	5.94857300	5.24729300
106.89999383	0.00000000	5.62869100	5.24729300
107.09999382	0.00000000	6.41609200	6.36072800
107.29999381	0.00000000	7.86171200	7.89247000
107.49999379	0.00000000	9.01820900	9.47342500
107.69999378	0.00000000	9.44266700	10.96211000
107.89999377	0.00000000	9.44266700	11.70029000
108.09999376	0.00000000	9.01820900	10.96211000
108.29999375	0.00000000	7.90477300	9.47342500
108.49999374	0.00000000	6.74212600	7.89247000
108.69999372	0.00000000	5.94857300	6.36072800
108.89999371	0.00000000	5.16117100	5.24729300
109.09999370	0.00000000	4.83513700	5.24729300
109.29999369	0.00000000	5.21038300	6.36072800
109.49999368	0.00000000	6.36687900	7.93553100
109.69999366	0.00000000	7.90477300	9.84867000
109.89999365	0.00000000	9.39345400	11.74951000
110.09999364	0.00000000	10.18086000	12.53691000
110.29999363	0.00000000	9.81791200	12.53691000
110.49999362	0.00000000	9.06742000	11.74951000
110.69999360	0.00000000	7.90477300	9.84867000
110.89999359	0.00000000	6.74212600	7.93553100
111.09999358	0.00000000	5.94857300	6.36072800
111.29999357	0.00000000	5.16117100	5.19808000
111.49999356	0.00000000	4.83513700	4.82898600
111.69999355	0.00000000	5.21038300	5.19808000
111.89999353	0.00000000	6.32381900	6.36072800
112.09999352	0.00000000	7.43725300	7.84940900
112.29999351	0.00000000	7.86171200	9.05511800
112.49999350	0.00000000	7.90477300	9.84867000
112.69999349	0.00000000	7.90477300	10.58686000
112.89999347	0.00000000	7.86171200	10.58686000
113.09999346	0.00000000	7.48646600	9.89173200
113.29999345	0.00000000	6.74212600	9.47342500
113.49999344	0.00000000	6.36687900	9.05511800
113.69999343	0.00000000	6.32381900	8.31077700
113.89999341	0.00000000	6.32381900	7.93553100
114.09999340	0.00000000	6.32381900	7.89247000
114.29999339	0.00000000	6.36687900	7.89247000
114.49999338	0.00000000	6.74212600	7.89247000
114.69999337	0.00000000	7.48646600	7.84940900
114.89999336	0.00000000	7.86171200	7.47416300
115.09999334	0.00000000	7.90477300	6.77903500
115.29999333	0.00000000	7.90477300	6.77903500
115.49999332	0.00000000	7.90477300	7.47416300
115.69999331	0.00000000	7.90477300	7.89247000
115.89999330	0.00000000	7.86171200	8.31077700
116.09999328	0.00000000	7.48646600	9.09817800
116.29999327	0.00000000	6.74212600	9.84867000
116.49999326	0.00000000	6.36687900	10.58686000
116.69999325	0.00000000	6.32381900	10.58686000
116.89999324	0.00000000	6.32381900	9.89173200
117.09999322	0.00000000	6.36687900	9.47342500
117.29999321	0.00000000	6.79133800	9.00590400
117.49999320	0.00000000	7.90477300	7.89247000
117.69999319	0.00000000	9.01820900	6.77903500
117.89999318	0.00000000	9.44266700	6.35457700
118.09999317	0.00000000	9.44266700	6.35457700
118.29999315	0.00000000	9.06742000	6.72982200
118.49999314	0.00000000	8.28001900	7.51722400
118.69999313	0.00000000	7.48646600	8.26771600
118.89999312	0.00000000	6.32381900	9.05511800
119.09999311	0.00000000	5.21038300	9.43036400
119.29999309	0.00000000	4.78592500	9.47342500
119.49999308	0.00000000	4.78592500	9.47342500
119.69999307	0.00000000	5.21038300	9.47342500
119.89999306	0.00000000	6.36687900	9.47342500
120.09999305	0.00000000	7.86171200	9.47342500
120.29999303	0.00000000	9.06742000	9.43036400
120.49999302	0.00000000	9.86097400	9.05511800
120.69999301	0.00000000	10.59916000	8.31077700
120.89999300	0.00000000	10.59916000	7.93553100
121.09999299	0.00000000	9.86097400	7.84940900
121.29999298	0.00000000	9.06742000	7.47416300
121.49999296	0.00000000	7.86171200	6.77903500
121.69999295	0.00000000	6.36687900	6.77903500
121.89999294	0.00000000	5.21038300	7.51722400
122.09999293	0.00000000	4.78592500	8.26771600
122.29999292	0.00000000	4.78592500	9.09817800
122.49999290	0.00000000	5.21038300	9.79945900
122.69999289	0.00000000	6.32381900	10.25467000
122.89999288	0.00000000	7.48646600	10.21776000
123.09999287	0.00000000	8.28001900	10.25467000
123.29999286	0.00000000	9.06742000	9.84867000
123.49999284	0.00000000	9.44266700	9.47342500
123.69999283	0.00000000	9.48572700	9.05511800
123.89999282	0.00000000	9.44266700	8.31077700
124.09999281	0.00000000	9.06742000	7.93553100
124.29999280	0.00000000	8.28001900	7.89247000
124.49999279	0.00000000	7.52952700	7.89247000
124.69999277	0.00000000	6.69906400	7.89247000
124.89999276	0.00000000	5.94857300	7.93553100
125.09999275	0.00000000	5.21038300	8.31077700
125.29999274	0.00000000	5.21038300	9.05511800
125.49999273	0.00000000	5.90551100	9.43036400
125.69999271	0.00000000	6.32381900	9.47342500
125.89999270	0.00000000	6.79133800	9.47342500
126.09999269	0.00000000	7.90477300	9.47342500
126.29999268	0.00000000	9.01820900	9.47342500
126.49999267	0.00000000	9.44266700	9.47342500
126.69999265	0.00000000	9.48572700	9.43036400
126.89999264	0.00000000	9.44266700	9.05511800
127.09999263	0.00000000	9.01820900	8.31077700
127.29999262	0.00000000	7.90477300	7.93553100
127.49999261	0.00000000	6.74212600	7.89247000
127.69999260	0.00000000	5.94857300	7.89247000
127.89999258	0.00000000	5.21038300	7.89247000
128.09999257	0.00000000	5.21038300	7.93553100
128.29999256	0.00000000	5.94857300	8.31077700
128.49999255	0.00000000	6.74212600	9.05511800
128.69999254	0.00000000	7.90477300	9.43036400
128.89999252	0.00000000	9.01820900	9.47342500
129.09999251	0.00000000	9.44266700	9.47342500
129.29999250	0.00000000	9.44266700	9.43036400
129.49999249	0.00000000	9.06742000	9.05511800
129.69999248	0.00000000	8.28001900	8.31077700
129.89999246	0.00000000	7.52952700	7.93553100
130.09999245	0.00000000	6.69906400	7.89247000
130.29999244	0.00000000	5.99163300	7.89247000
130.49999243	0.00000000	5.57947800	7.93553100
130.69999242	0.00000000	5.99163300	8.31077700
130.89999241	0.00000000	6.74212600	9.05511800
131.09999239	0.00000000	7.90477300	9.43036400
131.29999238	0.00000000	9.01820900	9.47342500
131.49999237	0.00000000	9.44266700	9.43036400
131.69999236	0.00000000	9.44266700	9.05511800
131.89999235	0.00000000	9.06742000	8.26771600
132.09999233	0.00000000	8.32308000	7.51722400
132.29999232	0.00000000	7.90477300	6.72982200
132.49999231	0.00000000	7.48646600	6.40378900
132.69999230	0.00000000	6.74212600	6.72982200
132.89999229	0.00000000	6.41609200	7.51722400
133.09999227	0.00000000	6.74212600	8.26771600
133.29999226	0.00000000	7.48646600	9.09817800
133.49999225	0.00000000	7.86171200	9.84867000
133.69999224	0.00000000	7.90477300	10.58686000
133.89999223	0.00000000	7.90477300	10.58686000
134.09999222	0.00000000	7.90477300	9.84867000
134.29999220	0.00000000	7.90477300	9.09817800
134.49999219	0.00000000	7.90477300	8.26771600
134.69999218	0.00000000	7.90477300	7.51722400
134.89999217	0.00000000	7.90477300	6.72982200
135.09999216	0.00000000	7.90477300	6.40378900
135.29999214	0.00000000	7.90477300	6.72982200
135.49999213	0.00000000	7.90477300	7.51722400
135.69999212	0.00000000	7.90477300	8.26771600
135.89999211	0.00000000	7.86171200	9.05511800
136.09999210	0.00000000	7.48646600	9.47342500
136.29999208	0.00000000	6.74212600	9.89173200
136.49999207	0.00000000	6.36687900	10.58686000
136.69999206	0.00000000	6.32381900	10.58686000
136.89999205	0.00000000	6.32381900	9.84867000
137.09999204	0.00000000	6.36687900	9.09817800
137.29999203	0.00000000	6.74212600	8.31077700
137.49999201	0.00000000	7.52952700	7.89247000
137.69999200	0.00000000	8.28001900	7.51722400
137.89999199	0.00000000	9.01820900	7.10506800
138.09999198	0.00000000	9.01820900	7.09891700
138.29999197	0.00000000	8.32308000	6.72982200
138.49999195	0.00000000	7.90477300	6.77903500
138.69999194	0.00000000	7.48646600	7.51722400
138.89999193	0.00000000	6.74212600	8.26771600
139.09999192	0.00000000	6.36687900	9.05511800
139.29999191	0.00000000	6.32381900	9.43036400
139.49999189	0.00000000	6.36687900	9.51648500
139.69999188	0.00000000	6.74212600	9.84867000
139.89999187	0.00000000	7.48646600	10.21161000
140.09999186	0.00000000	7.86171200	9.79945900
140.29999185	0.00000000	7.90477300	9.09817800
140.49999184	0.00000000	7.90477300	8.26771600
140.69999182	0.00000000	7.90477300	7.51722400
140.89999181	0.00000000	7.90477300	6.72982200
141.09999180	0.00000000	7.86171200	6.40378900
141.29999179	0.00000000	7.48646600	6.72982200
141.49999178	0.00000000	6.74212600	7.51722400
141.69999176	0.00000000	6.41609200	8.26771600
141.89999175	0.00000000	6.74212600	9.09817800
142.09999174	0.00000000	7.48646600	9.84867000
142.29999173	0.00000000	7.86171200	10.62992000
142.49999172	0.00000000	7.90477300	10.95595000
142.69999170	0.00000000	7.90477300	10.62992000
142.89999169	0.00000000	7.90477300	9.84867000
143.09999168	0.00000000	7.90477300	9.05511800
143.29999167	0.00000000	7.86171200	7.89247000
143.49999166	0.00000000	7.52952700	6.77903500
143.69999165	0.00000000	7.16043300	6.40378900
143.89999163	0.00000000	7.52952700	6.72982200
144.09999162	0.00000000	7.86171200	7.47416300
144.29999161	0.00000000	7.90477300	7.89247000
144.49999160	0.00000000	7.90477300	8.31077700
144.69999159	0.00000000	7.90477300	9.05511800
144.89999157	0.00000000	7.90477300	9.43036400
145.09999156	0.00000000	7.90477300	9.47342500
145.29999155	0.00000000	7.90477300	9.47342500
145.49999154	0.00000000	7.86171200	9.43036400
145.69999153	0.00000000	7.48646600	9.05511800
145.89999151	0.00000000	6.74212600	8.31077700
146.09999150	0.00000000	6.41609200	7.93553100
146.29999149	0.00000000	6.74212600	7.84940900
146.49999148	0.00000000	7.43725300	7.51722400
146.69999147	0.00000000	7.48646600	7.14812900
146.89999146	0.00000000	7.16043300	7.51722400
147.09999144	0.00000000	7.52952700	7.89247000
147.29999143	0.00000000	7.86171200	8.31077700
147.49999142	0.00000000	7.90477300	9.09817800
147.69999141	0.00000000	7.90477300	9.79945900
147.89999140	0.00000000	7.90477300	10.21161000
148.09999138	0.00000000	7.86171200	9.84867000
148.29999137	0.00000000	7.48646600	9.51648500
148.49999136	0.00000000	6.74212600	9.43036400
148.69999135	0.00000000	6.36687900	9.05511800
148.89999134	0.00000000	6.36687900	8.31077700
149.09999132	0.00000000	6.74212600	7.93553100
149.29999131	0.00000000	7.48646600	7.89247000
149.49999130	0.00000000	7.86171200	7.89247000
149.69999129	0.00000000	7.90477300	7.89247000
149.89999128	0.00000000	7.90477300	7.93553100
150.09999127	0.00000000	7.90477300	8.31077700
150.29999125	0.00000000	7.90477300	9.05511800
150.49999124	0.00000000	7.90477300	9.43036400
150.69999123	0.00000000	7.90477300	9.47342500
150.89999122	0.00000000	7.90477300	9.47342500
151.09999121	0.00000000	7.86171200	9.47342500
151.29999119	0.00000000	7.48646600	9.43036400
151.49999118	0.00000000	6.74212600	9.05511800
151.69999117	0.00000000	6.36687900	8.31077700
151.89999116	0.00000000	6.36687900	7.93553100
152.09999115	0.00000000	6.74212600	7.89247000
152.29999113	0.00000000	7.48646600	7.89247000
152.49999112	0.00000000	7.86171200	7.89247000
152.69999111	0.00000000	7.90477300	7.89247000
152.89999110	0.00000000	7.90477300	7.93553100
153.09999109	0.00000000	7.90477300	8.31077700
153.29999108	0.00000000	7.90477300	9.05511800
153.49999106	0.00000000	7.90477300	9.43036400
153.69999105	0.00000000	7.86171200	9.47342500
153.89999104	0.00000000	7.48646600	9.47342500
154.09999103	0.00000000	6.74212600	9.47342500
154.29999102	0.00000000	6.36687900	9.47342500
154.49999100	0.00000000	6.32381900	9.43036400
154.69999099	0.00000000	6.32381900	9.05511800
154.89999098	0.00000000	6.36687900	8.31077700
155.09999097	0.00000000	6.74212600	7.93553100
155.29999096	0.00000000	7.48646600	7.89247000
155.49999094	0.00000000	7.86171200	7.89247000
155.69999093	0.00000000	7.94783400	7.89247000
155.89999092	0.00000000	8.28001900	7.89247000
156.09999091	0.00000000	8.64911400	7.93553100
156.29999090	0.00000000	8.28001900	8.31077700
156.49999089	0.00000000	7.90477300	9.05511800
156.69999087	0.00000000	7.48646600	9.43036400
156.89999086	0.00000000	6.74212600	9.47342500
157.09999085	0.00000000	6.36687900	9.47342500
157.29999084	0.00000000	6.32381900	9.47342500
157.49999083	0.00000000	6.36687900	9.47342500
157.69999081	0.00000000	6.74212600	9.43036400
157.89999080	0.00000000	7.48646600	9.05511800
158.09999079	0.00000000	7.86171200	8.31077700
158.29999078	0.00000000	7.90477300	7.93553100
158.49999077	0.00000000	7.90477300	7.89247000
158.69999075	0.00000000	7.90477300	7.89247000
158.89999074	0.00000000	7.90477300	7.89247000
159.09999073	0.00000000	7.90477300	7.93553100
159.29999072	0.00000000	7.90477300	8.31077700
159.49999071	0.00000000	7.90477300	9.05511800
159.69999070	0.00000000	7.90477300	9.47342500
159.89999068	0.00000000	7.86171200	9.84867000
160.09999067	0.00000000	7.48646600	10.21161000
160.29999066	0.00000000	6.79133800	9.84867000
160.49999065	0.00000000	6.79133800	9.51648500
160.69999064	0.00000000	7.48646600	9.43036400
160.89999062	0.00000000	7.86171200	9.05511800
161.09999061	0.00000000	7.90477300	8.31077700
161.29999060	0.00000000	7.90477300	7.93553100
161.49999059	0.00000000	7.90477300	7.89247000
161.69999058	0.00000000	7.90477300	7.89247000
161.89999056	0.00000000	7.90477300	7.93553100
162.09999055	0.00000000	7.90477300	8.31077700
162.29999054	0.00000000	7.90477300	9.05511800
162.49999053	0.00000000	7.90477300	9.43036400
162.69999052	0.00000000	7.90477300	9.47342500
162.89999051	0.00000000	7.90477300	9.47342500
163.09999049	0.00000000	7.90477300	9.47342500
163.29999048	0.00000000	7.86171200	9.43036400
163.49999047	0.00000000	7.48646600	9.09817800
163.69999046	0.00000000	6.79133800	8.68602300
163.89999045	0.00000000	6.79133800	8.67987200
164.09999043	0.00000000	7.48646600	8.26771600
164.29999042	0.00000000	7.86171200	7.93553100
164.49999041	0.00000000	7.90477300	7.89247000
164.69999040	0.00000000	7.90477300	7.89247000
164.89999039	0.00000000	7.90477300	7.89247000
165.09999037	0.00000000	7.94783400	7.89247000
165.29999036	0.00000000	8.28001900	7.93553100
165.49999035	0.00000000	8.64911400	8.26771600
165.69999034	0.00000000	8.28001900	8.67987200
165.89999033	0.00000000	7.94783400	8.68602300
166.09999032	0.00000000	7.86171200	9.09817800
166.29999030	0.00000000	7.48646600	9.43036400
166.49999029	0.00000000	6.79133800	9.47342500
166.69999028	0.00000000	6.74212600	9.47342500
166.89999027	0.00000000	7.11122000	9.43036400
167.09999026	0.00000000	7.11737200	9.05511800
167.29999024	0.00000000	7.52952700	8.31077700
167.49999023	0.00000000	7.86171200	7.93553100
167.69999022	0.00000000	7.90477300	7.89247000
167.89999021	0.00000000	7.90477300	7.89247000
168.09999020	0.00000000	7.90477300	7.89247000
168.29999018	0.00000000	7.94783400	7.93553100
168.49999017	0.00000000	8.28001900	8.31077700
168.69999016	0.00000000	8.64911400	9.00590400
168.89999015	0.00000000	8.28001900	9.00590400
169.09999014	0.00000000	7.94783400	8.31077700
169.29999013	0.00000000	7.90477300	7.93553100
169.49999011	0.00000000	7.90477300	7.93553100
169.69999010	0.00000000	7.90477300	8.31077700
169.89999009	0.00000000	7.90477300	9.05511800
170.09999008	0.00000000	7.90477300	9.38115100
170.29999007	0.00000000	7.90477300	9.05511800
170.49999005	0.00000000	7.90477300	8.35998900
170.69999004	0.00000000	7.90477300	8.35998900
170.89999003	0.00000000	7.90477300	9.00590400
171.09999002	0.00000000	7.94783400	9.00590400
171.29999001	0.00000000	8.28001900	8.31077700
171.49998999	0.00000000	8.64911400	7.93553100
171.69998998	0.00000000	8.28001900	7.89247000
171.89998997	0.00000000	7.94783400	7.89247000
172.09998996	0.00000000	7.90477300	7.89247000
172.29998995	0.00000000	7.90477300	7.89247000
172.49998994	0.00000000	7.90477300	7.93553100
172.69998992	0.00000000	7.90477300	8.31077700
172.89998991	0.00000000	7.90477300	9.05511800
173.09998990	0.00000000	7.90477300	9.38115100
173.29998989	0.00000000	7.90477300	9.05511800
173.49998988	0.00000000	7.90477300	8.35998900
173.69998986	0.00000000	7.90477300	8.35998900
173.89998985	0.00000000	7.90477300	9.00590400
174.09998984	0.00000000	7.90477300	9.05511800
174.29998983	0.00000000	7.90477300	8.68602300
174.49998982	0.00000000	7.90477300	8.67987200
174.69998980	0.00000000	7.90477300	8.26771600
174.89998979	0.00000000	7.90477300	7.93553100
175.09998978	0.00000000	7.90477300	7.89247000
175.29998977	0.00000000	7.90477300	7.93553100
175.49998976	0.00000000	7.90477300	8.26771600
175.69998975	0.00000000	7.90477300	8.63681000
175.89998973	0.00000000	7.90477300	8.26771600
176.09998972	0.00000000	7.90477300	7.98474400
176.29998971	0.00000000	7.90477300	8.26771600
176.49998970	0.00000000	7.90477300	8.63681000
176.69998969	0.00000000	7.90477300	8.26771600
176.89998967	0.00000000	7.90477300	7.93553100
177.09998966	0.00000000	7.90477300	7.89247000
177.29998965	0.00000000	7.90477300	7.89247000
177.49998964	0.00000000	7.90477300	7.89247000
177.69998963	0.00000000	7.90477300	7.89247000
177.89998961	0.00000000	7.90477300	7.89247000
178.09998960	0.00000000	7.90477300	7.93553100
178.29998959	0.00000000	7.90477300	8.31077700
178.49998958	0.00000000	7.90477300	9.05511800
178.69998957	0.00000000	7.90477300	9.43036400
178.89998956	0.00000000	7.90477300	9.47342500
179.09998954	0.00000000	7.90477300	9.47342500
179.29998953	0.00000000	7.90477300	9.47342500
179.49998952	0.00000000	7.90477300	9.43036400
179.69998951	0.00000000	7.90477300	9.05511800
179.89998950	0.00000000	7.90477300	8.31077700
180.09998948	0.00000000	7.90477300	7.93553100
180.29998947	0.00000000	7.90477300	7.89247000
180.49998946	0.00000000	7.90477300	7.89247000
180.69998945	0.00000000	7.90477300	7.89247000
180.89998944	0.00000000	7.90477300	7.89247000
181.09998942	0.00000000	7.90477300	7.89247000
181.29998941	0.00000000	7.90477300	7.93553100
181.49998940	0.00000000	7.90477300	8.31077700
181.69998939	0.00000000	7.90477300	9.05511800
181.89998938	0.00000000	7.90477300	9.43036400
182.09998937	0.00000000	7.90477300	9.47342500
182.29998935	0.00000000	7.90477300	9.43036400
182.49998934	0.00000000	7.90477300	9.05511800
182.69998933	0.00000000	7.90477300	8.31077700
182.89998932	0.00000000	7.90477300	7.93553100
183.09998931	0.00000000	7.90477300	7.89247000
183.29998929	0.00000000	7.90477300	7.89247000
183.49998928	0.00000000	7.90477300	7.89247000
183.69998927	0.00000000	7.90477300	7.89247000
183.89998926	0.00000000	7.90477300	7.93553100
184.09998925	0.00000000	7.90477300	8.31077700
184.29998923	0.00000000	7.90477300	9.05511800
184.49998922	0.00000000	7.90477300	9.43036400
184.69998921	0.00000000	7.90477300	9.47342500
184.89998920	0.00000000	7.90477300	9.47342500
185.09998919	0.00000000	7.90477300	9.47342500
185.29998918	0.00000000	7.90477300	9.47342500
185.49998916	0.00000000	7.90477300	9.43036400
185.69998915	0.00000000	7.90477300	9.05511800
185.89998914	0.00000000	7.90477300	8.31077700
186.09998913	0.00000000	7.90477300	7.93553100
186.29998912	0.00000000	7.90477300	7.89247000
186.49998910	0.00000000	7.90477300	7.89247000
186.69998909	0.00000000	7.90477300	7.89247000
186.89998908	0.00000000	7.90477300	7.93553100
187.09998907	0.00000000	7.90477300	8.31077700
187.29998906	0.00000000	7.90477300	9.05511800
187.49998904	0.00000000	7.90477300	9.43036400
187.69998903	0.00000000	7.90477300	9.47342500
187.89998902	0.00000000	7.90477300	9.47342500
188.09998901	0.00000000	7.90477300	9.47342500
188.29998900	0.00000000	7.90477300	9.43036400
188.49998899	0.00000000	7.90477300	9.05511800
188.69998897	0.00000000	7.90477300	8.31077700
188.89998896	0.00000000	7.90477300	7.93553100
189.09998895	0.00000000	7.90477300	7.89247000
189.29998894	0.00000000	7.90477300	7.89247000
189.49998893	0.00000000	7.90477300	7.89247000
189.69998891	0.00000000	7.90477300	7.89247000
189.89998890	0.00000000	7.90477300	7.93553100
190.09998889	0.00000000	7.90477300	8.31077700
190.29998888	0.00000000	7.90477300	9.05511800
190.49998887	0.00000000	7.90477300	9.43036400
190.69998885	0.00000000	7.90477300	9.47342500
190.89998884	0.00000000	7.90477300	9.47342500
191.09998883	0.00000000	7.90477300	9.47342500
191.29998882	0.00000000	7.90477300	9.47342500
191.49998881	0.00000000	7.90477300	9.47342500
191.69998880	0.00000000	7.90477300	9.43036400
191.89998878	0.00000000	7.90477300	9.05511800
192.09998877	0.00000000	7.90477300	8.31077700
192.29998876	0.00000000	7.90477300	7.93553100
192.49998875	0.00000000	7.90477300	7.89247000
192.69998874	0.00000000	7.90477300	7.89247000
192.89998872	0.00000000	7.90477300	7.89247000
193.09998871	0.00000000	7.90477300	7.93553100
193.29998870	0.00000000	7.90477300	8.31077700
193.49998869	0.00000000	7.90477300	9.05511800
193.69998868	0.00000000	7.90477300	9.43036400
193.89998866	0.00000000	7.90477300	9.47342500
194.09998865	0.00000000	7.90477300	9.47342500
194.29998864	0.00000000	7.90477300	9.47342500
194.49998863	0.00000000	7.90477300	9.43036400
194.69998862	0.00000000	7.90477300	9.05511800
194.89998861	0.00000000	7.90477300	8.31077700
195.09998859	0.00000000	7.94783400	7.93553100
195.29998858	0.00000000	8.28001900	7.89247000
195.49998857	0.00000000	8.64911400	7.89247000
195.69998856	0.00000000	8.28001900	7.93553100
195.89998855	0.00000000	7.94783400	8.26771600
196.09998853	0.00000000	7.90477300	8.63681000
