Time	Channel A	Channel B	Channel C
(us)	(V)	(mV)	(mV)

-4.53333289	0.00000000	47.43479000	23.68356000
-4.33333290	0.00000000	47.43479000	23.68356000
-4.13333291	0.00000000	47.43479000	23.68356000
-3.93333293	0.00000000	47.43479000	23.68356000
-3.73333294	0.00000000	47.43479000	23.68356000
-3.53333295	0.00000000	47.43479000	23.68356000
-3.33333296	0.00000000	47.43479000	23.72662000
-3.13333297	0.00000000	47.43479000	24.05881000
-2.93333299	0.00000000	47.43479000	24.42790000
-2.73333300	0.00000000	47.43479000	24.05881000
-2.53333301	0.00000000	47.43479000	23.77584000
-2.33333302	0.00000000	47.43479000	24.10187000
-2.13333303	0.00000000	47.43479000	24.79700000
-1.93333304	0.00000000	47.43479000	24.84621000
-1.73333306	0.00000000	47.43479000	24.52018000
-1.53333307	0.00000000	47.43479000	24.88927000
-1.33333308	0.00000000	47.47785000	25.17224000
-1.13333309	0.00000000	47.81004000	24.88927000
-0.93333310	0.00000000	48.17913000	24.52018000
-0.73333312	0.00000000	47.81004000	24.88927000
-0.53333313	0.00000000	47.47785000	25.22145000
-0.33333314	0.15871060	47.43479000	25.26452000
-0.13333315	0.47736220	47.43479000	25.26452000
0.06666684	0.95533960	47.43479000	25.26452000
0.26666682	0.95533960	47.43479000	25.26452000
0.46666681	0.95533960	47.43479000	25.26452000
0.66666680	0.47736220	47.43479000	25.26452000
0.86666679	-0.31803640	47.43479000	25.26452000
1.06666678	-1.27399100	47.43479000	25.26452000
1.26666677	-2.22994600	47.43479000	25.26452000
1.46666675	-2.70792300	47.43479000	25.26452000
1.66666674	-2.54859700	47.43479000	25.26452000
1.86666673	-1.59264300	47.43479000	25.26452000
2.06666672	0.15871060	47.43479000	25.26452000
2.26666671	2.22994600	47.43479000	25.26452000
2.46666669	4.14124000	47.43479000	25.26452000
2.66666668	5.25652100	47.43479000	25.26452000
2.86666667	5.09719500	47.43479000	25.26452000
3.06666666	3.50393700	47.43479000	25.26452000
3.26666665	0.63668800	47.43479000	25.22145000
3.46666663	-2.86724900	47.43479000	24.88927000
3.66666662	-5.89382400	47.43479000	24.52018000
3.86666661	-7.80511800	47.43479000	24.93233000
4.06666660	-7.80511800	47.43479000	25.59055000
4.26666659	-5.73449800	47.43479000	26.04577000
4.46666658	-1.91129400	47.43479000	26.00886000
4.66666656	2.38927200	47.47785000	26.04577000
4.86666655	6.53112700	47.81004000	25.63976000
5.06666654	8.92039900	48.17913000	25.30758000
5.26666653	9.39837600	47.81004000	25.22145000
5.46666652	7.32714100	47.47785000	24.84621000
5.66666650	3.34522600	47.43479000	24.10187000
5.86666649	-1.43331700	47.43479000	23.77584000
6.06666648	-5.73449800	47.43479000	24.10187000
6.26666647	-8.76107300	47.47785000	24.84621000
6.46666646	-9.39837600	47.85310000	25.22145000
6.66666644	-7.80511800	48.54823000	25.26452000
6.86666643	-4.30056600	48.54823000	25.26452000
7.06666642	0.00000000	47.85310000	25.26452000
7.26666641	4.14124000	47.47785000	25.26452000
7.46666640	6.84916400	47.43479000	25.22145000
7.66666639	7.80511800	47.43479000	24.88927000
7.86666637	6.69045300	47.43479000	24.47712000
8.06666636	4.14124000	47.43479000	24.47096000
8.26666635	0.79601380	47.43479000	24.10187000
8.46666634	-2.22994600	47.43479000	24.15108000
8.66666633	-4.45989200	47.43479000	24.84621000
8.86666631	-5.25652100	47.43479000	25.22145000
9.06666630	-4.61921700	47.43479000	25.22145000
9.26666629	-3.02657500	47.43479000	24.84621000
9.46666628	-1.11466500	47.47785000	24.10187000
9.66666627	0.79601380	47.81004000	23.72662000
9.86666625	2.07062000	48.17913000	23.68356000
10.06666624	2.54859700	47.81004000	23.68356000
10.26666623	2.22994600	47.47785000	23.68356000
10.46666622	1.59264300	47.43479000	23.68356000
10.66666621	0.79601380	47.43479000	23.68356000
10.86666620	0.00000000	47.43479000	23.68356000
11.06666618	-0.63668800	47.43479000	23.68356000
11.26666617	-0.95533960	47.43479000	23.68356000
11.46666616	-0.95533960	47.43479000	23.68356000
11.66666615	-0.79601380	47.43479000	23.68356000
11.86666614	-0.47736220	47.43479000	23.72662000
12.06666612	-0.15871060	47.43479000	24.10187000
12.26666611	-0.15871060	47.43479000	24.84621000
12.46666610	-0.15871060	47.43479000	25.22145000
12.66666609	0.00000000	47.43479000	25.26452000
12.86666608	0.00000000	47.43479000	25.26452000
13.06666606	0.00000000	47.43479000	25.26452000
13.26666605	0.00000000	47.47785000	25.26452000
13.46666604	0.00000000	47.85310000	25.26452000
13.66666603	0.00000000	48.54823000	25.26452000
13.86666602	-0.15871060	48.54823000	25.26452000
14.06666601	-0.15871060	47.90231000	25.26452000
14.26666599	-0.15871060	47.85310000	25.26452000
14.46666598	-0.15871060	48.17913000	25.26452000
14.66666597	0.00000000	47.81004000	25.26452000
14.86666596	0.00000000	47.47785000	25.26452000
15.06666595	0.00000000	47.47785000	25.26452000
15.26666593	0.00000000	47.81004000	25.26452000
15.46666592	0.00000000	48.17913000	25.26452000
15.66666591	0.00000000	47.85310000	25.30758000
15.86666590	0.00000000	47.90231000	25.63976000
16.06666589	0.00000000	48.59744000	26.00270000
16.26666587	-0.15871060	48.97269000	25.63976000
16.46666586	0.00000000	49.01575000	25.30758000
16.66666585	-0.15871060	49.01575000	25.26452000
16.86666584	0.00000000	49.05881000	25.26452000
17.06666583	0.00000000	49.43405000	25.26452000
17.26666582	0.00000000	50.17839000	25.26452000
17.46666580	0.00000000	50.55364000	25.26452000
17.66666579	0.00000000	50.55364000	25.26452000
17.86666578	0.00000000	50.12918000	25.26452000
18.06666577	0.00000000	48.97269000	25.26452000
18.26666576	0.00000000	47.43479000	25.26452000
18.46666574	0.00000000	45.85384000	25.26452000
18.66666573	0.00000000	44.31594000	25.26452000
18.86666572	-0.15871060	43.15945000	25.26452000
19.06666571	-0.15871060	42.82726000	25.26452000
19.26666570	0.00000000	43.66388000	25.26452000
19.46666568	0.00000000	46.36442000	25.26452000
19.66666567	0.00000000	50.22145000	25.26452000
19.86666566	0.00000000	54.09079000	25.26452000
20.06666565	0.00000000	57.57259000	25.26452000
20.26666564	0.00000000	59.43651000	25.26452000
20.46666563	0.00000000	59.06127000	25.26452000
20.66666561	0.00000000	56.23154000	25.26452000
20.86666560	0.00000000	50.78125000	25.26452000
21.06666559	0.00000000	43.06717000	25.26452000
21.26666558	0.00000000	35.38385000	25.26452000
21.46666557	-0.15871060	29.61368000	25.26452000
21.66666555	0.00000000	27.33145000	25.22145000
21.86666554	0.00000000	29.74901000	24.88927000
22.06666553	0.00000000	36.78026000	24.47712000
22.26666552	0.00000000	48.03149000	24.47096000
22.46666551	0.00000000	61.10974000	24.10187000
22.66666549	0.00000000	72.65009000	24.15108000
22.86666548	0.00000000	79.58292000	24.84621000
23.06666547	0.00000000	79.86589000	25.22145000
23.26666546	0.00000000	72.84079000	25.30758000
23.46666545	0.00000000	58.88287000	25.68282000
23.66666544	0.00000000	41.15403000	26.42101000
23.86666542	0.00000000	23.75123000	26.74705000
24.06666541	0.00000000	10.72219000	26.42101000
24.26666540	0.00000000	5.74557000	25.63976000
24.46666539	0.00000000	10.81447000	24.84621000
24.66666538	0.00000000	24.72933000	23.64050000
24.86666536	0.00000000	44.91880000	22.10261000
25.06666535	0.00000000	67.25517000	20.57087000
25.26666534	0.00000000	86.55881000	19.45743000
25.46666533	0.00000000	97.69315000	19.50049000
25.66666532	-0.15871060	98.05609000	20.98917000
25.86666530	0.00000000	86.79871000	23.35753000
26.06666529	0.00000000	66.37549000	26.14419000
26.26666528	0.00000000	41.62155000	30.00123000
26.46666527	0.00000000	18.07332000	33.76599000
26.66666526	0.00000000	1.13804100	35.71604000
26.86666525	0.00000000	-4.67519700	35.67298000
27.06666523	0.00000000	1.83932100	33.25541000
27.26666522	0.00000000	18.44857000	27.82357000
27.46666521	0.00000000	41.66461000	20.52780000
27.66666520	0.00000000	66.41855000	13.18282000
27.86666519	0.00000000	87.17397000	7.41879900
28.06666517	0.00000000	98.75123000	4.77362200
28.26666516	0.00000000	97.73621000	6.39763700
28.46666515	0.00000000	86.28198000	12.57382000
28.66666514	0.00000000	68.04256000	22.28100000
28.86666513	0.00000000	46.36442000	33.48917000
29.06666511	0.00000000	25.89198000	44.30979000
29.26666510	0.00000000	11.18971000	51.98080000
29.46666509	0.00000000	5.32726300	54.63213000
29.66666508	0.00000000	9.14124000	51.00885000
29.86666507	0.00000000	21.05684000	40.59424000
30.06666506	0.00000000	38.08440000	25.59055000
30.26666504	0.00000000	56.23154000	10.16240000
30.46666503	0.00000000	71.77042000	-2.60826800
30.66666502	0.00000000	81.44685000	-9.90403500
30.86666501	0.00000000	83.86442000	-9.90403500
31.06666500	0.00000000	78.84473000	-2.52214600
31.26666498	0.00000000	68.09177000	11.04823000
31.46666497	0.00000000	54.13385000	28.42027000
31.66666496	0.00000000	40.21899000	45.74926000
31.86666495	0.00000000	28.96161000	58.85826000
32.06666494	0.00000000	22.77313000	64.70840000
32.26666492	0.00000000	22.68085000	62.38927000
32.46666491	0.00000000	28.07579000	52.71899000
32.66666490	0.00000000	37.34006000	37.25394000
32.86666489	0.00000000	48.54823000	19.50049000
33.06666488	0.00000000	58.97515000	3.24188000
33.26666487	0.00000000	66.37549000	-8.37229300
33.46666485	0.00000000	69.49433000	-12.97367000
33.66666484	0.00000000	67.95644000	-9.48572700
33.86666483	0.00000000	62.18011000	1.66092500
34.06666482	0.00000000	53.75861000	17.45817000
34.26666481	0.00000000	45.29404000	34.09203000
34.46666479	0.00000000	39.05635000	48.44980000
34.66666478	0.00000000	35.89444000	57.69562000
34.86666477	0.00000000	35.94365000	60.01476000
35.06666476	0.00000000	39.38853000	54.63213000
35.26666475	0.00000000	45.47859000	43.10408000
35.46666473	0.00000000	51.62401000	28.42027000
35.66666472	0.00000000	56.32381000	13.78568000
35.86666471	0.00000000	59.01821000	2.58981300
36.06666470	0.00000000	59.01821000	-2.47908400
36.26666469	0.00000000	56.32381000	-0.98425190
36.46666468	0.00000000	51.71013000	6.35457700
36.66666466	0.00000000	46.32135000	17.87647000
36.86666465	0.00000000	41.79995000	30.56102000
37.06666464	0.00000000	39.80684000	40.92643000
37.26666463	0.00000000	40.96333000	46.35826000
37.46666462	0.00000000	43.99606000	45.62008000
37.66666460	0.00000000	48.64050000	39.53002000
37.86666459	0.00000000	53.24803000	29.90895000
38.06666458	0.00000000	56.78519000	19.59276000
38.26666457	0.00000000	59.06127000	11.55266000
38.46666456	0.00000000	59.01821000	8.48302100
38.66666454	0.00000000	56.36687000	11.09129000
38.86666453	0.00000000	52.13459000	17.96260000
39.06666452	0.00000000	47.47785000	26.79626000
39.26666451	0.00000000	43.24557000	35.24852000
39.46666450	0.00000000	40.50196000	40.92643000
39.66666449	0.00000000	39.70842000	41.66461000
39.86666447	0.00000000	40.45890000	36.69414000
40.06666446	0.00000000	42.82726000	27.95275000
40.26666445	0.00000000	46.32135000	18.33784000
40.46666444	0.00000000	50.59670000	10.62377000
40.66666443	0.00000000	54.82898000	6.39763700
40.86666441	0.00000000	57.90477000	6.85900500
41.06666440	0.00000000	59.11048000	12.57382000
41.26666439	0.00000000	58.36614000	21.81964000
41.46666438	0.00000000	56.40993000	31.77288000
41.66666437	0.00000000	53.29109000	40.21899000
41.86666435	0.00000000	49.43405000	44.08218000
42.06666434	0.00000000	45.94611000	43.01181000
42.26666433	0.00000000	43.20251000	37.99213000
42.46666432	0.00000000	41.66461000	29.90895000
42.66666431	0.00000000	41.66461000	21.12451000
42.86666430	0.00000000	43.20251000	14.11171000
43.06666428	0.00000000	45.85384000	10.24852000
43.26666427	0.00000000	48.54823000	9.83636800
43.46666426	0.00000000	50.55364000	13.31816000
43.66666425	0.00000000	52.13459000	19.36516000
43.86666424	0.00000000	53.29109000	25.95964000
44.06666422	0.00000000	53.66634000	31.35457000
44.26666421	0.00000000	53.34030000	34.87328000
44.46666420	0.00000000	52.59596000	35.62377000
44.66666419	0.00000000	52.22071000	33.80905000
44.86666418	0.00000000	52.13459000	30.32726000
45.06666416	0.00000000	51.75935000	26.51329000
45.26666415	0.00000000	50.97194000	22.98843000
45.46666414	0.00000000	50.12918000	20.66314000
45.66666413	0.00000000	48.50517000	19.45743000
45.86666412	0.00000000	45.81078000	19.50049000
46.06666411	0.00000000	42.78420000	21.03838000
46.26666409	0.00000000	40.50196000	23.72662000
46.46666408	0.00000000	40.12672000	26.79626000
46.66666407	0.00000000	41.70767000	29.49065000
46.86666406	0.00000000	45.24483000	31.02239000
47.06666405	0.00000000	50.68897000	31.06545000
47.26666403	0.00000000	56.82825000	29.95201000
47.46666402	0.00000000	62.27239000	28.37721000
47.66666401	0.00000000	65.67421000	26.37795000
47.86666400	0.00000000	65.99409000	23.72662000
48.06666399	0.00000000	62.09399000	21.45669000
48.26666397	0.00000000	54.82898000	20.66314000
48.46666396	0.00000000	46.32135000	21.03838000
48.66666395	0.00000000	38.54576000	22.61319000
48.86666394	0.00000000	32.81865000	25.30758000
49.06666393	0.00000000	30.91781000	28.37721000
49.26666392	0.00000000	34.02436000	31.11466000
49.46666390	0.00000000	40.92027000	33.02165000
49.66666389	0.00000000	50.22145000	33.76599000
49.86666388	0.00000000	59.44266000	32.56028000
50.06666387	0.00000000	66.41855000	29.49065000
50.26666386	0.00000000	69.44512000	25.26452000
50.46666384	0.00000000	67.53198000	21.03838000
50.66666383	0.00000000	60.97440000	17.96260000
50.86666382	0.00000000	51.80241000	16.80610000
51.06666381	0.00000000	42.50738000	17.96260000
51.26666380	0.00000000	35.61146000	20.98917000
51.46666379	0.00000000	32.49877000	24.88927000
51.66666377	0.00000000	34.44881000	28.75246000
51.86666376	0.00000000	40.50196000	32.22810000
52.06666375	0.00000000	48.64050000	34.14124000
52.26666374	0.00000000	56.69291000	34.14124000
52.46666373	0.00000000	62.83218000	32.22810000
52.66666371	0.00000000	64.74532000	28.75246000
52.86666370	0.00000000	62.18011000	24.93233000
53.06666369	0.00000000	56.78519000	21.40748000
53.26666368	0.00000000	50.22145000	19.12524000
53.46666367	0.00000000	43.66388000	18.33784000
53.66666365	0.00000000	39.10556000	19.50049000
53.86666364	0.00000000	37.89985000	22.15182000
54.06666363	0.00000000	40.21899000	25.21530000
54.26666362	0.00000000	45.20177000	27.90969000
54.46666361	0.00000000	51.71013000	29.44759000
54.66666360	0.00000000	57.43725000	29.49065000
54.86666358	0.00000000	60.55610000	28.32800000
55.06666357	0.00000000	60.59916000	26.42101000
55.26666356	0.00000000	57.85556000	24.19414000
55.46666355	0.00000000	52.87278000	23.03149000
55.66666354	0.00000000	46.78272000	23.40059000
55.86666352	0.00000000	42.17519000	24.52018000
56.06666351	0.00000000	40.17593000	26.46407000
56.26666350	0.00000000	40.55118000	28.28494000
56.46666349	0.00000000	43.28863000	29.07234000
56.66666348	0.00000000	47.85310000	28.28494000
56.86666346	0.00000000	52.82972000	26.32874000
57.06666345	0.00000000	56.32381000	23.26525000
57.26666344	0.00000000	57.94783000	19.82652000
57.46666343	0.00000000	57.90477000	17.59350000
57.66666342	0.00000000	55.99163000	17.22441000
57.86666341	0.00000000	52.55290000	19.54355000
58.06666339	0.00000000	49.10802000	23.77584000
58.26666338	0.00000000	46.36442000	28.79552000
58.46666337	0.00000000	44.82652000	33.76599000
58.66666336	0.00000000	44.78346000	36.82948000
58.86666335	0.00000000	45.94611000	37.20472000
59.06666333	0.00000000	47.85310000	34.87943000
59.26666332	0.00000000	50.17839000	29.82283000
59.46666331	0.00000000	52.08538000	23.30832000
59.66666330	0.00000000	53.29109000	16.75689000
59.86666329	0.00000000	53.66634000	12.20472000
60.06666327	0.00000000	53.24803000	11.04208000
60.26666326	0.00000000	51.75935000	13.73647000
60.46666325	0.00000000	49.90157000	19.50049000
60.66666324	0.00000000	49.10802000	26.83932000
60.86666323	0.00000000	49.01575000	34.14124000
61.06666322	0.00000000	49.05881000	39.53002000
61.26666320	0.00000000	49.48326000	41.48006000
61.46666319	0.00000000	50.59670000	39.89911000
61.66666318	0.00000000	51.66707000	34.87943000
61.86666317	0.00000000	51.71013000	27.17150000
62.06666316	0.00000000	50.97194000	19.12524000
62.26666314	0.00000000	50.17839000	12.57382000
62.46666313	0.00000000	49.01575000	9.51033400
62.66666312	0.00000000	47.94537000	10.62377000
62.86666311	0.00000000	47.94537000	15.22515000
63.06666310	0.00000000	49.01575000	22.19488000
63.26666308	0.00000000	50.22145000	29.86589000
63.46666307	0.00000000	51.39025000	36.46038000
63.66666306	0.00000000	52.92200000	40.36663000
63.86666305	0.00000000	53.66634000	41.52312000
64.06666304	0.00000000	53.71555000	39.53002000
64.26666303	0.00000000	53.29109000	34.18430000
64.46666301	0.00000000	52.13459000	27.30684000
64.66666300	0.00000000	50.59670000	21.08145000
64.86666299	0.00000000	49.05881000	16.38779000
65.06666298	0.00000000	47.94537000	13.69340000
65.26666297	0.00000000	47.94537000	13.69340000
65.46666295	0.00000000	49.05881000	16.33858000
65.66666294	0.00000000	50.55364000	20.57087000
65.86666293	0.00000000	51.71013000	25.22145000
66.06666292	0.00000000	52.13459000	29.53371000
66.26666291	0.00000000	52.13459000	33.02165000
66.46666289	0.00000000	51.71013000	35.34079000
66.66666288	0.00000000	50.55364000	35.75910000
66.86666287	0.00000000	49.05881000	34.64567000
67.06666286	0.00000000	47.90231000	32.69562000
67.26666285	0.00000000	47.57013000	29.95201000
67.46666284	0.00000000	48.32062000	26.83932000
67.66666282	0.00000000	50.26451000	23.68356000
67.86666281	0.00000000	52.55290000	20.57087000
68.06666280	0.00000000	54.87204000	17.87647000
68.26666279	0.00000000	56.36687000	16.33858000
68.46666278	0.00000000	56.36687000	16.38164000
68.66666276	0.00000000	54.78592000	18.33784000
68.86666275	0.00000000	51.66707000	22.14567000
69.06666274	0.00000000	47.43479000	26.42101000
69.26666273	0.00000000	43.28863000	30.32726000
69.46666272	0.00000000	40.96949000	33.85211000
69.66666270	0.00000000	41.28937000	36.09129000
69.86666269	0.00000000	43.24557000	36.50344000
70.06666268	0.00000000	46.78272000	34.51033000
70.26666267	0.00000000	51.80241000	30.69636000
70.46666266	0.00000000	56.78519000	25.63976000
70.66666265	0.00000000	60.64222000	20.61393000
70.86666263	0.00000000	62.18011000	16.33858000
71.06666262	0.00000000	61.01746000	13.73647000
71.26666261	0.00000000	57.52953000	14.11171000
71.46666260	0.00000000	52.08538000	17.50123000
71.66666259	0.00000000	45.94611000	22.10261000
71.86666257	0.00000000	40.55118000	26.79626000
72.06666256	0.00000000	37.47539000	31.02239000
72.26666255	0.00000000	37.43233000	33.71678000
72.46666254	0.00000000	40.12672000	34.14124000
72.66666253	0.00000000	44.78346000	32.64640000
72.86666251	0.00000000	50.59670000	29.95201000
73.06666250	0.00000000	56.36687000	26.88853000
73.26666249	0.00000000	60.59916000	24.19414000
73.46666248	0.00000000	62.18011000	22.61319000
73.66666247	0.00000000	61.06668000	22.19488000
73.86666246	0.00000000	57.94783000	22.57013000
74.06666244	0.00000000	53.34030000	23.72662000
74.26666243	0.00000000	48.32062000	25.21530000
74.46666242	0.00000000	44.45127000	26.32874000
74.66666241	0.00000000	42.13213000	26.32874000
74.86666240	0.00000000	42.13213000	25.26452000
75.06666238	0.00000000	44.36515000	24.15108000
75.26666237	0.00000000	47.43479000	23.77584000
75.46666236	0.00000000	50.59670000	24.15108000
75.66666235	0.00000000	53.66634000	25.35064000
75.86666234	0.00000000	55.94857000	27.30684000
76.06666232	0.00000000	56.36687000	30.00123000
76.26666231	0.00000000	55.29650000	32.60334000
76.46666230	0.00000000	53.75861000	33.76599000
76.66666229	0.00000000	52.17765000	32.97859000
76.86666228	0.00000000	50.63976000	30.64714000
77.06666227	0.00000000	49.52633000	26.74705000
77.26666225	0.00000000	49.48326000	22.14567000
77.46666224	0.00000000	50.17839000	17.91953000
77.66666223	0.00000000	50.55364000	15.27436000
77.86666222	0.00000000	50.59670000	15.27436000
78.06666221	0.00000000	50.55364000	17.96260000
78.26666219	0.00000000	50.17839000	22.57013000
78.46666218	0.00000000	49.43405000	28.00197000
78.66666217	0.00000000	49.05881000	33.02165000
78.86666216	0.00000000	49.10802000	36.87869000
79.06666215	0.00000000	49.90157000	38.36737000
79.26666213	0.00000000	51.80241000	36.87869000
79.46666212	0.00000000	53.71555000	33.06471000
79.66666211	0.00000000	55.29650000	28.42027000
79.86666210	0.00000000	56.36687000	23.72662000
80.06666209	0.00000000	55.99163000	19.50049000
80.26666208	0.00000000	54.09079000	16.80610000
80.46666206	0.00000000	51.75935000	16.43085000
80.66666205	0.00000000	49.05881000	18.29478000
80.86666204	0.00000000	46.78272000	21.72736000
81.06666203	0.00000000	45.98917000	25.21530000
81.26666202	0.00000000	46.36442000	28.42027000
81.46666200	0.00000000	47.94537000	31.48991000
81.66666199	0.00000000	50.59670000	33.80905000
81.86666198	0.00000000	53.29109000	34.60261000
82.06666197	0.00000000	55.24729000	34.22736000
82.26666196	0.00000000	56.45300000	32.64640000
82.46666194	0.00000000	56.78519000	30.00123000
82.66666193	0.00000000	55.99163000	27.25763000
82.86666192	0.00000000	53.71555000	24.88927000
83.06666191	0.00000000	51.06422000	22.52091000
83.26666190	0.00000000	49.10802000	20.61393000
83.46666189	0.00000000	47.94537000	19.45743000
83.66666187	0.00000000	47.94537000	19.45743000
83.86666186	0.00000000	49.01575000	20.66314000
84.06666185	0.00000000	50.17839000	22.98843000
84.26666184	0.00000000	50.97194000	26.46407000
84.46666183	0.00000000	51.75935000	29.90895000
84.66666181	0.00000000	52.13459000	32.64640000
84.86666180	0.00000000	52.17765000	34.18430000
85.06666179	0.00000000	52.17765000	34.18430000
85.26666178	0.00000000	52.17765000	32.60334000
85.46666177	0.00000000	52.17765000	29.49065000
85.66666175	0.00000000	52.17765000	25.26452000
85.86666174	0.00000000	52.17765000	20.98917000
86.06666173	0.00000000	52.17765000	17.54429000
86.26666172	0.00000000	52.13459000	15.64345000
86.46666171	0.00000000	51.71013000	16.43085000
86.66666170	0.00000000	50.59670000	19.45743000
86.86666168	0.00000000	49.48326000	23.72662000
87.06666167	0.00000000	49.01575000	28.32800000
87.26666166	0.00000000	48.64050000	32.22810000
87.46666165	0.00000000	48.32062000	34.51033000
87.66666164	0.00000000	49.10802000	34.87943000
87.86666162	0.00000000	50.59670000	32.56028000
88.06666161	0.00000000	52.13459000	28.37721000
88.26666160	0.00000000	53.29109000	23.72662000
88.46666159	0.00000000	53.66634000	19.50049000
88.66666158	0.00000000	53.34030000	16.80610000
88.86666156	0.00000000	52.55290000	16.43085000
89.06666155	0.00000000	51.75935000	18.38090000
89.26666154	0.00000000	50.55364000	22.61319000
89.46666153	0.00000000	49.10802000	27.95275000
89.66666152	0.00000000	48.36368000	32.56028000
89.86666151	0.00000000	49.05881000	35.24852000
90.06666149	0.00000000	50.17839000	35.29773000
90.26666148	0.00000000	50.97194000	33.02165000
90.46666147	0.00000000	51.75935000	29.49065000
90.66666146	0.00000000	52.13459000	24.84621000
90.86666145	0.00000000	52.17765000	19.96186000
91.06666143	0.00000000	52.17765000	17.26747000
91.26666142	0.00000000	52.17765000	17.59350000
91.46666141	0.00000000	52.17765000	19.87574000
91.66666140	0.00000000	52.17765000	23.81890000
91.86666139	0.00000000	52.22071000	28.75246000
92.06666137	0.00000000	52.59596000	33.34153000
92.26666136	0.00000000	53.29109000	35.67298000
92.46666135	0.00000000	53.29109000	35.67298000
92.66666134	0.00000000	52.55290000	33.34153000
92.86666133	0.00000000	51.80241000	28.79552000
93.06666132	0.00000000	50.97194000	24.19414000
93.26666130	0.00000000	50.22145000	20.66314000
93.46666129	0.00000000	49.43405000	18.43012000
93.66666128	0.00000000	49.10802000	18.80536000
93.86666127	0.00000000	49.48326000	21.81964000
94.06666126	0.00000000	50.68897000	25.68282000
94.26666124	0.00000000	52.59596000	29.90895000
94.46666123	0.00000000	54.92125000	33.34769000
94.66666122	0.00000000	56.78519000	34.51033000
94.86666121	0.00000000	57.57259000	33.76599000
95.06666120	0.00000000	56.78519000	31.02239000
95.26666118	0.00000000	54.87204000	26.88238000
95.46666117	0.00000000	52.13459000	23.03149000
95.66666116	0.00000000	49.05881000	20.70620000
95.86666115	0.00000000	46.36442000	19.91880000
96.06666114	0.00000000	44.82652000	21.08145000
96.26666113	0.00000000	44.82652000	23.72662000
96.46666111	0.00000000	46.40748000	26.79626000
96.66666110	0.00000000	49.48326000	29.53371000
96.86666109	0.00000000	53.34030000	31.44069000
97.06666108	0.00000000	56.82825000	32.18504000
97.26666107	0.00000000	59.52879000	31.06545000
97.46666105	0.00000000	60.69144000	28.79552000
97.66666104	0.00000000	59.90403000	26.51329000
97.86666103	0.00000000	57.61565000	24.56324000
98.06666102	0.00000000	54.09079000	23.77584000
98.26666101	0.00000000	50.26451000	23.72662000
98.46666099	0.00000000	46.73966000	24.10187000
98.66666098	0.00000000	44.45127000	24.88927000
98.86666097	0.00000000	43.66388000	25.63976000
99.06666096	0.00000000	44.82652000	26.42101000
99.26666095	0.00000000	47.47785000	26.79626000
99.46666094	0.00000000	50.63976000	26.83932000
99.66666092	0.00000000	54.13385000	26.83932000
99.86666091	0.00000000	57.57259000	26.88238000
100.06666090	0.00000000	59.52879000	27.25763000
100.26666089	0.00000000	59.94709000	28.00197000
100.46666088	0.00000000	59.11048000	28.37721000
100.66666086	0.00000000	56.45300000	28.37721000
100.86666085	0.00000000	53.01427000	27.95275000
101.06666084	0.00000000	50.26451000	26.79626000
101.26666083	0.00000000	47.90231000	25.26452000
101.46666082	0.00000000	46.36442000	23.68356000
101.66666080	0.00000000	45.98917000	22.19488000
101.86666079	0.00000000	46.73966000	21.45669000
102.06666078	0.00000000	48.68356000	22.23794000
102.26666077	0.00000000	50.97194000	24.14493000
102.46666076	0.00000000	53.34030000	26.83932000
102.66666075	0.00000000	55.24729000	29.53371000
102.86666073	0.00000000	56.45300000	31.44069000
103.06666072	0.00000000	56.82825000	32.22810000
103.26666071	0.00000000	56.40993000	31.44069000
103.46666070	0.00000000	54.87204000	29.53371000
103.66666069	0.00000000	52.59596000	26.79626000
103.86666067	0.00000000	50.63976000	23.72662000
104.06666066	0.00000000	49.05881000	21.03838000
104.26666065	0.00000000	47.94537000	19.50049000
104.46666064	0.00000000	47.94537000	19.54355000
104.66666063	0.00000000	49.01575000	21.40748000
104.86666061	0.00000000	50.22145000	24.51402000
105.06666060	0.00000000	51.43332000	27.58981000
105.26666059	0.00000000	53.34030000	30.64714000
105.46666058	0.00000000	54.82898000	32.13582000
105.66666057	0.00000000	55.24729000	31.48991000
105.86666056	0.00000000	54.87204000	29.95201000
106.06666054	0.00000000	53.71555000	28.00197000
106.26666053	0.00000000	52.22071000	25.68282000
106.46666052	0.00000000	51.06422000	23.77584000
106.66666051	0.00000000	50.63976000	22.61319000
106.86666050	0.00000000	50.63976000	22.65625000
107.06666048	0.00000000	51.06422000	24.14493000
107.26666047	0.00000000	52.17765000	26.42101000
107.46666046	0.00000000	53.29109000	28.32800000
107.66666045	0.00000000	53.71555000	29.53371000
107.86666044	0.00000000	53.75861000	29.90895000
108.06666042	0.00000000	53.71555000	29.53371000
108.26666041	0.00000000	53.29109000	28.37721000
108.46666040	0.00000000	52.17765000	26.83932000
108.66666039	0.00000000	51.06422000	25.30758000
108.86666038	0.00000000	50.63976000	24.15108000
109.06666037	0.00000000	50.63976000	23.81890000
109.26666035	0.00000000	51.06422000	24.56324000
109.46666034	0.00000000	52.17765000	26.46407000
109.66666033	0.00000000	53.34030000	28.32800000
109.86666032	0.00000000	54.13385000	29.58292000
110.06666031	0.00000000	54.92125000	30.32726000
110.26666029	0.00000000	55.24729000	30.69636000
110.46666028	0.00000000	54.87204000	29.90895000
110.66666027	0.00000000	53.75861000	28.42027000
110.86666026	0.00000000	52.59596000	26.83932000
111.06666025	0.00000000	51.80241000	25.30758000
111.26666023	0.00000000	51.01501000	24.15108000
111.46666022	0.00000000	50.68897000	23.77584000
111.66666021	0.00000000	51.01501000	24.15108000
111.86666020	0.00000000	51.80241000	25.26452000
112.06666019	0.00000000	52.55290000	26.42101000
112.26666018	0.00000000	53.34030000	27.21457000
112.46666016	0.00000000	53.71555000	28.00197000
112.66666015	0.00000000	53.75861000	28.37721000
112.86666014	0.00000000	53.75861000	28.42027000
113.06666013	0.00000000	53.75861000	28.37721000
113.26666012	0.00000000	53.71555000	28.00197000
113.46666010	0.00000000	53.34030000	27.25763000
113.66666009	0.00000000	52.59596000	26.88238000
113.86666008	0.00000000	52.22071000	26.79626000
114.06666007	0.00000000	52.17765000	26.42101000
114.26666006	0.00000000	52.17765000	25.68282000
114.46666004	0.00000000	52.17765000	25.30758000
114.66666003	0.00000000	52.17765000	25.26452000
114.86666002	0.00000000	52.22071000	25.26452000
115.06666001	0.00000000	52.59596000	25.26452000
115.26666000	0.00000000	53.34030000	25.26452000
115.46665999	0.00000000	53.71555000	25.30758000
115.66665997	0.00000000	53.75861000	25.72589000
115.86665996	0.00000000	53.71555000	26.83932000
116.06665995	0.00000000	53.34030000	27.95275000
116.26665994	0.00000000	52.59596000	28.37721000
116.46665993	0.00000000	52.17765000	28.42027000
116.66665991	0.00000000	51.80241000	28.42027000
116.86665990	0.00000000	51.43332000	28.37721000
117.06665989	0.00000000	51.80241000	27.95275000
117.26665988	0.00000000	52.17765000	26.79626000
117.46665987	0.00000000	52.59596000	25.30758000
117.66665985	0.00000000	53.34030000	24.15108000
117.86665984	0.00000000	53.71555000	23.72662000
118.06665983	0.00000000	53.75861000	23.72662000
118.26665982	0.00000000	53.75861000	24.15108000
118.46665981	0.00000000	53.71555000	25.26452000
118.66665980	0.00000000	53.29109000	26.42101000
118.86665978	0.00000000	52.17765000	27.21457000
119.06665977	0.00000000	51.06422000	28.00197000
119.26665976	0.00000000	50.63976000	28.37721000
119.46665975	0.00000000	50.59670000	28.42027000
119.66665974	0.00000000	50.63976000	28.37721000
119.86665972	0.00000000	51.06422000	28.00197000
120.06665971	0.00000000	52.22071000	27.25763000
120.26665970	0.00000000	53.75861000	26.88238000
120.46665969	0.00000000	55.29650000	26.79626000
120.66665968	0.00000000	56.40993000	26.42101000
120.86665966	0.00000000	56.40993000	25.68282000
121.06665965	0.00000000	55.33957000	25.30758000
121.26665964	0.00000000	54.17691000	25.30758000
121.46665963	0.00000000	53.34030000	25.68282000
121.66665962	0.00000000	52.17765000	26.42101000
121.86665961	0.00000000	51.06422000	26.79626000
122.06665959	0.00000000	50.63976000	26.88238000
122.26665958	0.00000000	50.63976000	27.25763000
122.46665957	0.00000000	51.06422000	28.00197000
122.66665956	0.00000000	52.17765000	28.37721000
122.86665955	0.00000000	53.34030000	28.42027000
123.06665953	0.00000000	54.13385000	28.42027000
123.26665952	0.00000000	54.96432000	28.42027000
123.46665951	0.00000000	55.67175000	28.37721000
123.66665950	0.00000000	56.08390000	28.00197000
123.86665949	0.00000000	55.71481000	27.25763000
124.06665947	0.00000000	55.29650000	26.83932000
124.26665946	0.00000000	54.50295000	26.42101000
124.46665945	0.00000000	53.01427000	25.72589000
124.66665944	0.00000000	52.22071000	25.72589000
124.86665943	0.00000000	51.75935000	26.42101000
125.06665942	0.00000000	51.01501000	26.83932000
125.26665940	0.00000000	50.68897000	27.25763000
125.46665939	0.00000000	51.01501000	28.00197000
125.66665938	0.00000000	51.80241000	28.37721000
125.86665937	0.00000000	52.59596000	28.42027000
126.06665936	0.00000000	53.75861000	28.42027000
126.26665934	0.00000000	54.87204000	28.42027000
126.46665933	0.00000000	55.29650000	28.37721000
126.66665932	0.00000000	55.33957000	28.00197000
126.86665931	0.00000000	55.29650000	27.25763000
127.06665930	0.00000000	54.87204000	26.88238000
127.26665928	0.00000000	53.71555000	26.83932000
127.46665927	0.00000000	52.22071000	26.83932000
127.66665926	0.00000000	51.06422000	26.83932000
127.86665925	0.00000000	50.68897000	26.83932000
128.06665924	0.00000000	51.06422000	26.88238000
128.26665923	0.00000000	52.17765000	27.25763000
128.46665921	0.00000000	53.34030000	28.00197000
128.66665920	0.00000000	54.13385000	28.37721000
128.86665919	0.00000000	54.92125000	28.42027000
129.06665918	0.00000000	55.29650000	28.37721000
129.26665917	0.00000000	55.29650000	28.00197000
129.46665915	0.00000000	54.87204000	27.25763000
129.66665914	0.00000000	53.75861000	26.88238000
129.86665913	0.00000000	52.64517000	26.83932000
130.06665912	0.00000000	52.17765000	26.83932000
130.26665911	0.00000000	51.80241000	26.83932000
130.46665909	0.00000000	51.48252000	26.83932000
130.66665908	0.00000000	52.22071000	26.88238000
130.86665907	0.00000000	53.34030000	27.25763000
131.06665906	0.00000000	54.13385000	27.95275000
131.26665905	0.00000000	54.92125000	27.95275000
131.46665904	0.00000000	55.29650000	27.25763000
131.66665902	0.00000000	55.29650000	26.83932000
131.86665901	0.00000000	54.92125000	26.42101000
132.06665900	0.00000000	54.13385000	25.68282000
132.26665899	0.00000000	53.38336000	25.30758000
132.46665898	0.00000000	52.59596000	25.30758000
132.66665896	0.00000000	52.22071000	25.68282000
132.86665895	0.00000000	52.22071000	26.46407000
133.06665894	0.00000000	52.59596000	27.17150000
133.26665893	0.00000000	53.34030000	27.62672000
133.46665892	0.00000000	53.71555000	27.63287000
133.66665890	0.00000000	53.75861000	28.00197000
133.86665889	0.00000000	53.75861000	27.95275000
134.06665888	0.00000000	53.71555000	27.21457000
134.26665887	0.00000000	53.38336000	26.46407000
134.46665886	0.00000000	53.01427000	25.68282000
134.66665885	0.00000000	53.38336000	25.30758000
134.86665883	0.00000000	53.75861000	25.26452000
135.06665882	0.00000000	54.13385000	25.26452000
135.26665881	0.00000000	54.50295000	25.26452000
135.46665880	0.00000000	54.13385000	25.30758000
135.66665879	0.00000000	53.75861000	25.68282000
135.86665877	0.00000000	53.34030000	26.42101000
136.06665876	0.00000000	52.59596000	26.83932000
136.26665875	0.00000000	52.22071000	27.25763000
136.46665874	0.00000000	52.17765000	27.95275000
136.66665873	0.00000000	52.17765000	27.95275000
136.86665871	0.00000000	52.22071000	27.25763000
137.06665870	0.00000000	52.59596000	26.88238000
137.26665869	0.00000000	53.38336000	26.83932000
137.46665868	0.00000000	54.13385000	26.83932000
137.66665867	0.00000000	54.92125000	26.83932000
137.86665866	0.00000000	55.29650000	26.79626000
138.06665864	0.00000000	55.29650000	26.46407000
138.26665863	0.00000000	54.92125000	26.10113000
138.46665862	0.00000000	54.17691000	26.46407000
138.66665861	0.00000000	53.75861000	26.83932000
138.86665860	0.00000000	53.34030000	27.25763000
139.06665858	0.00000000	52.59596000	28.00197000
139.26665857	0.00000000	52.26993000	28.42027000
139.46665856	0.00000000	52.59596000	28.79552000
139.66665855	0.00000000	53.38336000	29.16461000
139.86665854	0.00000000	54.13385000	28.79552000
140.06665852	0.00000000	54.92125000	28.42027000
140.26665851	0.00000000	55.29650000	28.00197000
140.46665850	0.00000000	55.33957000	27.25763000
140.66665849	0.00000000	55.29650000	26.88238000
140.86665848	0.00000000	54.92125000	26.83932000
141.06665847	0.00000000	54.17691000	26.83932000
141.26665845	0.00000000	53.80167000	26.83932000
141.46665844	0.00000000	53.75861000	26.88238000
141.66665843	0.00000000	53.75861000	27.30684000
141.86665842	0.00000000	53.80167000	28.42027000
142.06665841	0.00000000	54.17691000	29.53371000
142.26665839	0.00000000	54.92125000	29.95817000
142.46665838	0.00000000	55.29650000	29.95817000
142.66665837	0.00000000	55.33957000	29.58292000
142.86665836	0.00000000	55.29650000	28.79552000
143.06665835	0.00000000	54.92125000	28.04503000
143.26665834	0.00000000	54.17691000	27.21457000
143.46665832	0.00000000	53.80167000	26.46407000
143.66665831	0.00000000	53.75861000	25.72589000
143.86665830	0.00000000	53.75861000	25.72589000
144.06665829	0.00000000	53.80167000	26.42101000
144.26665828	0.00000000	54.17691000	26.83932000
144.46665826	0.00000000	54.92125000	27.25763000
144.66665825	0.00000000	55.29650000	28.00197000
144.86665824	0.00000000	55.33957000	28.37721000
145.06665823	0.00000000	55.29650000	28.42027000
145.26665822	0.00000000	54.92125000	28.37721000
145.46665820	0.00000000	54.17691000	28.00197000
145.66665819	0.00000000	53.80167000	27.21457000
145.86665818	0.00000000	53.75861000	26.46407000
146.06665817	0.00000000	53.75861000	25.68282000
146.26665816	0.00000000	53.75861000	25.30758000
146.46665815	0.00000000	53.80167000	25.26452000
146.66665813	0.00000000	54.17691000	25.30758000
146.86665812	0.00000000	54.92125000	25.68282000
147.06665811	0.00000000	55.29650000	26.42101000
147.26665810	0.00000000	55.29650000	26.79626000
147.46665809	0.00000000	54.92125000	26.88238000
147.66665807	0.00000000	54.17691000	27.25763000
147.86665806	-0.15871060	53.80167000	27.95275000
148.06665805	0.00000000	53.75861000	27.95275000
148.26665804	0.00000000	53.75861000	27.25763000
148.46665803	0.00000000	53.75861000	26.88238000
148.66665801	0.00000000	53.75861000	26.83932000
148.86665800	0.00000000	53.75861000	26.79626000
149.06665799	0.00000000	53.80167000	26.42101000
149.26665798	0.00000000	54.17691000	25.68282000
149.46665797	0.00000000	54.92125000	25.35679000
149.66665796	0.00000000	55.24729000	25.68282000
149.86665794	0.00000000	54.92125000	26.42101000
150.06665793	0.00000000	54.17691000	26.83932000
150.26665792	0.00000000	53.80167000	27.25763000
150.46665791	0.00000000	53.75861000	27.95275000
150.66665790	0.00000000	53.75861000	27.95275000
150.86665788	0.00000000	53.75861000	27.30684000
151.06665787	0.00000000	53.75861000	27.30684000
151.26665786	0.00000000	53.75861000	27.95275000
151.46665785	0.00000000	53.75861000	27.95275000
151.66665784	0.00000000	53.75861000	27.25763000
151.86665782	0.00000000	53.75861000	26.88238000
152.06665781	0.00000000	53.80167000	26.83932000
152.26665780	0.00000000	54.17691000	26.83932000
152.46665779	0.00000000	54.92125000	26.83932000
152.66665778	0.00000000	55.29650000	26.83932000
152.86665777	0.00000000	55.33957000	26.88238000
153.06665775	0.00000000	55.33957000	27.25763000
153.26665774	0.00000000	55.29650000	28.00197000
153.46665773	0.00000000	54.92125000	28.37721000
153.66665772	0.00000000	54.17691000	28.42027000
153.86665771	0.00000000	53.80167000	28.42027000
154.06665769	0.00000000	53.75861000	28.42027000
154.26665768	0.00000000	53.75861000	28.42027000
154.46665767	0.00000000	53.75861000	28.42027000
154.66665766	0.00000000	53.80167000	28.42027000
154.86665765	0.00000000	54.17691000	28.37721000
155.06665763	0.00000000	54.96432000	28.00197000
155.26665762	0.00000000	55.67175000	27.25763000
155.46665761	0.00000000	56.08390000	26.93159000
155.66665760	0.00000000	55.71481000	27.25763000
155.86665759	0.00000000	55.38263000	28.00197000
156.06665758	0.00000000	55.33957000	28.37721000
156.26665756	0.00000000	55.29650000	28.42027000
156.46665755	0.00000000	54.92125000	28.42027000
156.66665754	0.00000000	54.17691000	28.46333000
156.86665753	0.00000000	53.80167000	28.79552000
157.06665752	0.00000000	53.75861000	29.16461000
157.26665750	0.00000000	53.80167000	28.79552000
157.46665749	0.00000000	54.13385000	28.46333000
157.66665748	0.00000000	54.54601000	28.42027000
157.86665747	0.00000000	54.55216000	28.37721000
158.06665746	0.00000000	54.96432000	28.00197000
158.26665744	0.00000000	55.29650000	27.25763000
158.46665743	0.00000000	55.33957000	26.93159000
158.66665742	0.00000000	55.33957000	27.25763000
158.86665741	0.00000000	55.33957000	27.95275000
159.06665740	0.00000000	55.33957000	28.00197000
159.26665739	0.00000000	55.33957000	27.67593000
159.46665737	0.00000000	55.29650000	28.04503000
159.66665736	0.00000000	54.92125000	28.37721000
159.86665735	0.00000000	54.17691000	28.42027000
160.06665734	0.00000000	53.80167000	28.42027000
160.26665733	0.00000000	53.80167000	28.42027000
160.46665731	0.00000000	54.13385000	28.37721000
160.66665730	0.00000000	54.50295000	28.00197000
160.86665729	0.00000000	54.13385000	27.25763000
161.06665728	0.00000000	53.85088000	26.88238000
161.26665727	0.00000000	54.17691000	26.83932000
161.46665725	0.00000000	54.92125000	26.83932000
161.66665724	0.00000000	55.29650000	26.83932000
161.86665723	0.00000000	55.33957000	26.83932000
162.06665722	0.00000000	55.33957000	26.83932000
162.26665721	0.00000000	55.33957000	26.88238000
162.46665720	0.00000000	55.33957000	27.25763000
162.66665718	0.00000000	55.29650000	27.95275000
162.86665717	0.00000000	54.92125000	28.00197000
163.06665716	0.00000000	54.17691000	27.63287000
163.26665715	0.00000000	53.80167000	27.62672000
163.46665714	0.00000000	53.75861000	27.21457000
163.66665712	0.00000000	53.75861000	26.88238000
163.86665711	0.00000000	53.75861000	26.83932000
164.06665710	0.00000000	53.75861000	26.83932000
164.26665709	0.00000000	53.80167000	26.83932000
164.46665708	0.00000000	54.17691000	26.83932000
164.66665706	0.00000000	54.92125000	26.83932000
164.86665705	0.00000000	55.29650000	26.83932000
165.06665704	0.00000000	55.33957000	26.88238000
165.26665703	0.00000000	55.33957000	27.21457000
165.46665702	0.00000000	55.33957000	27.58366000
165.66665701	0.00000000	55.29650000	27.25763000
165.86665699	0.00000000	54.92125000	27.25763000
166.06665698	0.00000000	54.17691000	27.62672000
166.26665697	0.00000000	53.80167000	27.58981000
166.46665696	0.00000000	53.75861000	27.62672000
166.66665695	0.00000000	53.80167000	27.21457000
166.86665693	0.00000000	54.13385000	26.88238000
167.06665692	0.00000000	54.54601000	26.83932000
167.26665691	0.00000000	54.55216000	26.83932000
167.46665690	0.00000000	54.96432000	26.83932000
167.66665689	0.00000000	55.29650000	26.83932000
167.86665687	0.00000000	55.33957000	26.83932000
168.06665686	0.00000000	55.33957000	26.83932000
168.26665685	0.00000000	55.33957000	26.83932000
168.46665684	0.00000000	55.33957000	26.88238000
168.66665683	0.00000000	55.33957000	27.25763000
168.86665682	0.00000000	55.33957000	28.00197000
169.06665680	0.00000000	55.33957000	28.37721000
169.26665679	0.00000000	55.33957000	28.42027000
169.46665678	0.00000000	55.33957000	28.42027000
169.66665677	0.00000000	55.33957000	28.42027000
169.86665676	0.00000000	55.33957000	28.42027000
170.06665674	0.00000000	55.33957000	28.42027000
170.26665673	0.00000000	55.33957000	28.42027000
170.46665672	0.00000000	55.33957000	28.42027000
170.66665671	0.00000000	55.33957000	28.42027000
170.86665670	0.00000000	55.33957000	28.42027000
171.06665668	0.00000000	55.33957000	28.42027000
171.26665667	0.00000000	55.33957000	28.42027000
171.46665666	0.00000000	55.33957000	28.42027000
171.66665665	0.00000000	55.33957000	28.42027000
171.86665664	0.00000000	55.33957000	28.42027000
172.06665663	0.00000000	55.33957000	28.42027000
172.26665661	0.00000000	55.33957000	28.42027000
172.46665660	0.00000000	55.33957000	28.42027000
172.66665659	0.00000000	55.33957000	28.42027000
172.86665658	0.00000000	55.33957000	28.42027000
173.06665657	0.00000000	55.33957000	28.42027000
173.26665655	0.00000000	55.33957000	28.37721000
173.46665654	0.00000000	55.33957000	28.04503000
173.66665653	0.00000000	55.33957000	27.67593000
173.86665652	0.00000000	55.33957000	28.04503000
174.06665651	0.00000000	55.33957000	28.37721000
174.26665649	0.00000000	55.33957000	28.42027000
174.46665648	0.00000000	55.33957000	28.42027000
174.66665647	0.00000000	55.33957000	28.42027000
174.86665646	0.00000000	55.33957000	28.42027000
175.06665645	0.00000000	55.33957000	28.42027000
175.26665644	0.00000000	55.33957000	28.42027000
175.46665642	0.00000000	55.33957000	28.42027000
175.66665641	0.00000000	55.33957000	28.37721000
175.86665640	0.00000000	55.33957000	28.04503000
176.06665639	0.00000000	55.33957000	27.67593000
176.26665638	0.00000000	55.33957000	28.00197000
176.46665636	0.00000000	55.33957000	28.00197000
176.66665635	0.00000000	55.33957000	27.67593000
176.86665634	0.00000000	55.33957000	28.00197000
177.06665633	0.00000000	55.33957000	27.95275000
177.26665632	0.00000000	55.33957000	27.25763000
177.46665630	0.00000000	55.33957000	26.88238000
177.66665629	0.00000000	55.33957000	26.83932000
177.86665628	0.00000000	55.33957000	26.83932000
178.06665627	0.00000000	55.33957000	26.88238000
178.26665626	0.00000000	55.33957000	27.21457000
178.46665625	0.00000000	55.33957000	27.58366000
178.66665623	0.00000000	55.33957000	27.21457000
178.86665622	0.00000000	55.33957000	26.88238000
179.06665621	0.00000000	55.33957000	26.83932000
179.26665620	0.00000000	55.33957000	26.83932000
179.46665619	0.00000000	55.33957000	26.83932000
179.66665617	0.00000000	55.33957000	26.83932000
179.86665616	0.00000000	55.33957000	26.83932000
180.06665615	0.00000000	55.33957000	26.83932000
180.26665614	0.00000000	55.33957000	26.83932000
180.46665613	0.00000000	55.33957000	26.83932000
180.66665611	0.00000000	55.33957000	26.83932000
180.86665610	0.00000000	55.33957000	26.83932000
181.06665609	0.00000000	55.29650000	26.88238000
181.26665608	0.00000000	54.96432000	27.25763000
181.46665607	0.00000000	54.59522000	28.00197000
181.66665606	0.00000000	54.96432000	28.37721000
181.86665604	0.00000000	55.29650000	28.42027000
182.06665603	0.00000000	55.33957000	28.42027000
182.26665602	0.00000000	55.38263000	28.42027000
182.46665601	0.00000000	55.71481000	28.37721000
182.66665600	0.00000000	56.08390000	28.00197000
182.86665598	0.00000000	55.71481000	27.25763000
183.06665597	0.00000000	55.38263000	26.88238000
183.26665596	0.00000000	55.33957000	26.83932000
183.46665595	0.00000000	55.33957000	26.83932000
183.66665594	0.00000000	55.33957000	26.88238000
183.86665592	0.00000000	55.33957000	27.25763000
184.06665591	0.00000000	55.38263000	28.00197000
184.26665590	0.00000000	55.71481000	28.37721000
184.46665589	0.00000000	56.08390000	28.46333000
184.66665588	0.00000000	55.71481000	28.79552000
184.86665587	0.00000000	55.38263000	29.16461000
185.06665585	0.00000000	55.33957000	28.79552000
185.26665584	0.00000000	55.38263000	28.46333000
185.46665583	0.00000000	55.75787000	28.42027000
185.66665582	0.00000000	56.50221000	28.42027000
185.86665581	0.00000000	56.87746000	28.37721000
186.06665579	0.00000000	56.92052000	28.04503000
186.26665578	0.00000000	56.87746000	27.67593000
186.46665577	0.00000000	56.50221000	28.04503000
186.66665576	0.00000000	55.80708000	28.37721000
186.86665575	0.00000000	55.75787000	28.42027000
187.06665573	0.00000000	56.08390000	28.42027000
187.26665572	0.00000000	55.71481000	28.42027000
187.46665571	0.00000000	55.38263000	28.46333000
187.66665570	0.00000000	55.33957000	28.83858000
187.86665569	0.00000000	55.33957000	29.53371000
188.06665568	0.00000000	55.33957000	29.53371000
188.26665566	0.00000000	55.38263000	28.83858000
188.46665565	0.00000000	55.75787000	28.46333000
188.66665564	0.00000000	56.50221000	28.42027000
188.86665563	0.00000000	56.87746000	28.42027000
189.06665562	0.00000000	56.92052000	28.37721000
189.26665560	0.00000000	56.92052000	28.04503000
189.46665559	0.00000000	56.87746000	27.67593000
189.66665558	0.00000000	56.50221000	28.04503000
189.86665557	0.00000000	55.75787000	28.37721000
190.06665556	0.00000000	55.38263000	28.42027000
190.26665554	0.00000000	55.33957000	28.42027000
190.46665553	0.00000000	55.33957000	28.42027000
190.66665552	0.00000000	55.33957000	28.42027000
190.86665551	0.00000000	55.33957000	28.42027000
191.06665550	0.00000000	55.38263000	28.42027000
191.26665549	0.00000000	55.71481000	28.42027000
191.46665547	0.00000000	56.12696000	28.42027000
191.66665546	0.00000000	56.13312000	28.37721000
191.86665545	0.00000000	56.50221000	28.00197000
192.06665544	0.00000000	56.50221000	27.25763000
192.26665543	0.00000000	56.13312000	26.88238000
192.46665541	0.00000000	56.12696000	26.83932000
192.66665540	0.00000000	55.71481000	26.83932000
192.86665539	0.00000000	55.38263000	26.83932000
193.06665538	0.00000000	55.33957000	26.83932000
193.26665537	0.00000000	55.33957000	26.88238000
193.46665535	0.00000000	55.33957000	27.21457000
193.66665534	0.00000000	55.33957000	27.62672000
193.86665533	0.00000000	55.33957000	27.63287000
194.06665532	0.00000000	55.38263000	28.04503000
194.26665531	0.00000000	55.71481000	28.37721000
194.46665530	0.00000000	56.12696000	28.42027000
194.66665528	0.00000000	56.13312000	28.42027000
194.86665527	0.00000000	56.54527000	28.37721000
195.06665526	0.00000000	56.82825000	28.00197000
195.26665525	0.00000000	56.50221000	27.25763000
195.46665524	0.00000000	55.75787000	26.88238000
195.66665522	0.00000000	55.38263000	26.83932000
195.86665521	0.00000000	55.33957000	26.83932000
196.06665520	0.00000000	55.33957000	26.88238000
