Time	Channel A	Channel B	Channel C
(us)	(V)	(mV)	(mV)

-4.49999956	0.00000000	69.57431000	26.83932000
-4.29999957	0.00000000	69.57431000	26.83932000
-4.09999958	0.00000000	69.57431000	26.83932000
-3.89999959	0.00000000	69.57431000	26.88238000
-3.69999960	0.00000000	69.57431000	27.21457000
-3.49999962	0.00000000	69.57431000	27.58366000
-3.29999963	0.00000000	69.57431000	27.21457000
-3.09999964	0.00000000	69.57431000	26.88238000
-2.89999965	0.00000000	69.57431000	26.83932000
-2.69999966	0.00000000	69.57431000	26.83932000
-2.49999968	0.00000000	69.57431000	26.83932000
-2.29999969	0.00000000	69.57431000	26.83932000
-2.09999970	0.00000000	69.57431000	26.83932000
-1.89999971	0.00000000	69.53124000	26.83932000
-1.69999972	0.00000000	69.19906000	26.88238000
-1.49999973	0.00000000	68.82996000	27.21457000
-1.29999975	0.00000000	69.19906000	27.58366000
-1.09999976	0.00000000	69.53124000	27.21457000
-0.89999977	0.00000000	69.57431000	26.88238000
-0.69999978	0.00000000	69.57431000	26.88238000
-0.49999979	0.00000000	69.57431000	27.21457000
-0.29999981	0.31803640	69.57431000	27.58366000
-0.09999982	0.63668800	69.57431000	27.21457000
0.10000017	0.95533960	69.57431000	26.88238000
0.30000016	0.95533960	69.57431000	26.83932000
0.50000015	0.79601380	69.57431000	26.83932000
0.70000013	0.31803640	69.57431000	26.83932000
0.90000012	-0.63668800	69.57431000	26.83932000
1.10000011	-1.59264300	69.57431000	26.83932000
1.30000010	-2.38927200	69.57431000	26.83932000
1.50000009	-2.86724900	69.57431000	26.83932000
1.70000008	-2.38927200	69.57431000	26.83932000
1.90000006	-1.11466500	69.57431000	26.83932000
2.10000005	0.79601380	69.57431000	26.83932000
2.30000004	2.86724900	69.57431000	26.83932000
2.50000003	4.61921700	69.57431000	26.83932000
2.70000002	5.41584600	69.57431000	26.83932000
2.90000000	4.77854300	69.57431000	26.79626000
3.09999999	2.70792300	69.57431000	26.42101000
3.29999998	-0.47736220	69.57431000	25.68282000
3.49999997	-3.98191400	69.57431000	25.35679000
3.69999996	-6.69045300	69.61736000	25.68282000
3.89999994	-7.96444400	69.94955000	26.42101000
4.09999993	-7.32714100	70.31865000	26.79626000
4.29999992	-4.61921700	69.94955000	26.83932000
4.49999991	-0.63668800	69.61736000	26.83932000
4.69999990	3.82258900	69.57431000	26.83932000
4.89999989	7.48646600	69.57431000	26.83932000
5.09999987	9.39837600	69.57431000	26.83932000
5.29999986	8.92039900	69.57431000	26.79626000
5.49999985	6.21247500	69.57431000	26.42101000
5.69999984	1.91129400	69.57431000	25.72589000
5.89999983	-2.86724900	69.57431000	25.72589000
6.09999981	-7.00848900	69.57431000	26.42101000
6.29999980	-9.23905000	69.57431000	26.79626000
6.49999979	-9.07972400	69.61736000	26.83932000
6.69999978	-6.69045300	69.94955000	26.83932000
6.89999977	-3.02657500	70.31865000	26.83932000
7.09999975	1.43331700	69.94955000	26.83932000
7.29999974	5.25652100	69.61736000	26.83932000
7.49999973	7.32714100	69.57431000	26.83932000
7.69999972	7.64579200	69.57431000	26.79626000
7.89999971	6.05315000	69.57431000	26.46407000
8.09999970	3.02657500	69.57431000	26.10113000
8.29999968	-0.15871060	69.57431000	26.46407000
8.49999967	-3.18590100	69.53124000	26.79626000
8.69999966	-4.77854300	69.19906000	26.83932000
8.89999965	-5.25652100	68.82996000	26.83932000
9.09999964	-4.30056600	69.19906000	26.83932000
9.29999962	-2.54859700	69.53124000	26.83932000
9.49999961	-0.47736220	69.57431000	26.83932000
9.69999960	1.27399100	69.57431000	26.83932000
9.89999959	2.22994600	69.57431000	26.83932000
10.09999958	2.54859700	69.57431000	26.83932000
10.29999956	2.22994600	69.57431000	26.83932000
10.49999955	1.27399100	69.57431000	26.83932000
10.69999954	0.47736220	69.57431000	26.83932000
10.89999953	-0.31803640	69.57431000	26.83932000
11.09999952	-0.79601380	69.57431000	26.83932000
11.29999951	-0.95533960	69.57431000	26.83932000
11.49999949	-0.95533960	69.57431000	26.83932000
11.69999948	-0.63668800	69.57431000	26.83932000
11.89999947	-0.31803640	69.57431000	26.83932000
12.09999946	-0.15871060	69.57431000	26.83932000
12.29999945	-0.15871060	69.57431000	26.83932000
12.49999943	-0.15871060	69.57431000	26.83932000
12.69999942	0.00000000	69.57431000	26.83932000
12.89999941	0.00000000	69.57431000	26.83932000
13.09999940	0.00000000	69.57431000	26.83932000
13.29999939	0.00000000	69.57431000	26.83932000
13.49999937	0.00000000	69.57431000	26.83932000
13.69999936	0.00000000	69.57431000	26.83932000
13.89999935	0.00000000	69.57431000	26.83932000
14.09999934	-0.15871060	69.57431000	26.83932000
14.29999933	-0.15871060	69.57431000	26.88238000
14.49999932	-0.15871060	69.57431000	27.25763000
14.69999930	-0.15871060	69.57431000	27.95275000
14.89999929	0.00000000	69.57431000	27.95275000
15.09999928	0.00000000	69.57431000	27.25763000
15.29999927	0.00000000	69.57431000	26.88238000
15.49999926	0.00000000	69.57431000	26.83932000
15.69999924	0.00000000	69.57431000	26.83932000
15.89999923	0.00000000	69.57431000	26.79626000
16.09999922	0.00000000	69.57431000	26.46407000
16.29999921	0.00000000	69.57431000	26.10113000
16.49999920	0.00000000	69.57431000	26.46407000
16.69999919	0.00000000	69.61736000	26.79626000
16.89999917	0.00000000	69.99261000	26.83932000
17.09999916	0.00000000	70.73695000	26.83932000
17.29999915	0.00000000	71.15526000	26.83932000
17.49999914	0.00000000	71.48744000	26.83932000
17.69999913	0.00000000	71.47514000	26.83932000
17.89999911	0.00000000	70.32480000	26.83932000
18.09999910	0.00000000	69.19906000	26.83932000
18.29999909	0.00000000	67.94415000	26.83932000
18.49999908	0.00000000	66.40624000	26.83932000
18.69999907	0.00000000	64.86835000	26.83932000
18.89999905	0.00000000	63.75492000	26.83932000
19.09999904	0.00000000	63.79798000	26.83932000
19.29999903	0.00000000	65.33588000	26.83932000
19.49999902	0.00000000	68.07948000	26.83932000
19.69999901	0.00000000	71.62278000	26.83932000
19.89999900	0.00000000	75.85506000	26.83932000
20.09999898	0.00000000	79.61983000	26.83932000
20.29999897	0.00000000	81.11466000	26.83932000
20.49999896	0.00000000	79.57676000	26.83932000
20.69999895	0.00000000	75.30142000	26.83932000
20.89999894	0.00000000	69.06373000	26.83932000
21.09999892	0.00000000	61.66338000	26.83932000
21.29999891	0.00000000	54.35531000	26.83932000
21.49999890	0.00000000	49.05265000	26.83932000
21.69999889	0.00000000	47.98228000	26.83932000
21.89999888	0.00000000	52.25763000	26.83932000
22.09999886	0.00000000	61.14665000	26.83932000
22.29999885	0.00000000	72.82233000	26.83932000
22.49999884	0.00000000	85.20546000	26.83932000
22.69999883	0.00000000	95.90305000	26.83932000
22.89999882	0.00000000	101.25490000	26.83932000
23.09999881	0.00000000	99.26181000	26.88238000
23.29999879	0.00000000	90.32357000	27.25763000
23.49999878	0.00000000	75.15993000	28.00197000
23.69999877	0.00000000	57.05585000	28.37721000
23.89999876	0.00000000	40.12057000	28.42027000
24.09999875	0.00000000	28.99852000	28.37721000
24.29999873	0.00000000	27.08538000	27.95275000
24.49999872	0.00000000	34.86097000	26.79626000
24.69999871	0.00000000	51.14419000	25.26452000
24.89999870	0.00000000	72.77928000	23.68356000
25.09999869	0.00000000	94.78961000	22.19488000
25.29999867	0.00000000	112.10010000	21.40748000
25.49999866	0.00000000	120.14640000	21.81964000
25.69999865	0.00000000	116.28940000	22.98843000
25.89999864	0.00000000	101.63020000	25.39985000
26.09999863	0.00000000	79.57676000	28.88779000
26.29999862	0.00000000	54.82283000	33.11393000
26.49999860	0.00000000	32.81250000	36.87869000
26.69999859	0.00000000	18.57775000	38.41043000
26.89999858	0.00000000	15.87721000	37.25394000
27.09999857	0.00000000	25.50443000	33.71678000
27.29999856	0.00000000	44.77731000	27.86663000
27.49999854	0.00000000	69.15600000	20.52780000
27.69999853	0.00000000	93.07332000	13.22589000
27.89999852	0.00000000	111.25740000	7.83710600
28.09999851	0.00000000	119.40820000	6.02239100
28.29999850	0.00000000	116.38160000	8.76599300
28.49999848	0.00000000	103.26030000	16.47392000
28.69999847	0.00000000	83.15698000	26.93159000
28.89999846	0.00000000	60.77140000	38.22588000
29.09999845	0.00000000	41.04945000	48.95423000
29.29999844	0.00000000	28.62328000	55.78863000
29.49999843	0.00000000	25.46137000	56.16388000
29.69999841	0.00000000	31.60679000	49.98154000
29.89999840	0.00000000	45.47243000	38.31816000
30.09999839	0.00000000	63.24434000	23.26525000
30.29999838	0.00000000	81.06544000	7.84325700
30.49999837	0.00000000	95.39246000	-4.09694900
30.69999835	0.00000000	103.21110000	-9.86097400
30.89999834	0.00000000	103.67860000	-7.90477300
31.09999833	0.00000000	97.53321000	1.79626000
31.29999832	0.00000000	86.27583000	17.18135000
31.49999831	0.00000000	72.31791000	34.96555000
31.69999829	0.00000000	58.03395000	50.81816000
31.89999828	0.00000000	46.86885000	62.05708000
32.09999827	0.00000000	41.75073000	66.24015000
32.29999826	0.00000000	42.82111000	62.01402000
32.49999825	0.00000000	49.05265000	50.39985000
32.69999824	0.00000000	59.43036000	33.80905000
32.89999822	0.00000000	71.38287000	15.64960000
33.09999821	0.00000000	81.44070000	0.17224410
33.29999820	0.00000000	88.09055000	-9.90403500
33.49999819	0.00000000	90.04675000	-12.55536000
33.69999818	0.00000000	87.38926000	-6.79133800
33.89999816	0.00000000	81.20078000	5.88705700
34.09999815	0.00000000	72.68700000	22.15182000
34.29999814	0.00000000	63.84719000	38.74261000
34.49999813	0.00000000	56.91437000	52.30069000
34.69999812	0.00000000	53.79552000	59.65182000
34.89999810	0.00000000	54.91510000	60.06397000
35.09999809	0.00000000	59.47342000	53.09424000
35.29999808	0.00000000	66.03100000	40.40969000
35.49999807	0.00000000	72.55782000	25.35679000
35.69999806	0.00000000	77.62057000	11.09129000
35.89999805	0.00000000	79.85973000	1.10113200
36.09999803	0.00000000	78.78322000	-2.05462600
36.29999802	0.00000000	74.55708000	1.70398600
36.49999801	0.00000000	69.19906000	10.53765000
36.69999800	0.00000000	63.79798000	22.15182000
36.89999799	0.00000000	59.98400000	34.09203000
37.09999797	0.00000000	59.14739000	43.66388000
37.29999796	0.00000000	60.63607000	47.84694000
37.49999795	0.00000000	63.79798000	45.24483000
37.69999794	0.00000000	68.41166000	37.24778000
37.89999793	0.00000000	73.38828000	26.93159000
38.09999791	0.00000000	76.88238000	17.31053000
38.29999790	0.00000000	78.46333000	11.17741000
38.49999789	0.00000000	78.03887000	9.97170200
38.69999788	0.00000000	75.30142000	13.78568000
38.89999787	0.00000000	70.73695000	21.08145000
39.09999786	0.00000000	65.71111000	29.95817000
39.29999784	0.00000000	61.84178000	38.32431000
39.49999783	0.00000000	59.43036000	43.24557000
39.69999782	0.00000000	58.67987000	42.45817000
39.89999781	0.00000000	59.47342000	36.41117000
40.09999780	0.00000000	62.21702000	27.21457000
40.29999778	0.00000000	66.45546000	18.01181000
40.49999777	0.00000000	71.06299000	11.04208000
40.69999776	0.00000000	74.96924000	8.02165300
40.89999775	0.00000000	77.34374000	9.97170200
41.09999774	0.00000000	78.50639000	16.84916000
41.29999772	0.00000000	78.08808000	26.42101000
41.49999771	0.00000000	75.76279000	35.67298000
41.69999770	0.00000000	72.26870000	42.59350000
41.89999769	0.00000000	68.03641000	45.28789000
42.09999768	0.00000000	64.17323000	43.01181000
42.29999767	0.00000000	61.79872000	36.87869000
42.49999765	0.00000000	60.63607000	28.42027000
42.69999764	0.00000000	61.01131000	19.96186000
42.89999763	0.00000000	62.91216000	13.78568000
43.09999762	0.00000000	65.24360000	11.04208000
43.29999761	0.00000000	67.99335000	12.20472000
43.49999759	0.00000000	70.64468000	16.75689000
43.69999758	0.00000000	72.22563000	23.26525000
43.89999757	0.00000000	72.64394000	29.40452000
44.09999756	0.00000000	72.31791000	33.76599000
44.29999755	0.00000000	71.57356000	36.09129000
44.49999753	0.00000000	71.19833000	36.50344000
44.69999752	0.00000000	71.15526000	34.55955000
44.89999751	0.00000000	71.15526000	31.11466000
45.09999750	0.00000000	71.11221000	26.83932000
45.29999749	0.00000000	70.68774000	22.65625000
45.49999748	0.00000000	69.48203000	19.96186000
45.69999746	0.00000000	67.52583000	19.50049000
45.89999745	0.00000000	64.78223000	20.61393000
46.09999744	0.00000000	61.75566000	22.57013000
46.29999743	0.00000000	59.47342000	25.26452000
46.49999742	0.00000000	59.14739000	27.95891000
46.69999740	0.00000000	61.05437000	29.90895000
46.89999739	0.00000000	64.96062000	31.06545000
47.09999738	0.00000000	70.03568000	31.06545000
47.29999737	0.00000000	75.85506000	29.90895000
47.49999736	0.00000000	81.15772000	27.95891000
47.69999734	0.00000000	83.80905000	25.30758000
47.89999733	0.00000000	82.64640000	22.98843000
48.09999732	0.00000000	77.99581000	21.77658000
48.29999731	0.00000000	70.64468000	20.98917000
48.49999730	0.00000000	62.17396000	21.08145000
48.69999729	0.00000000	54.86589000	22.65625000
48.89999727	0.00000000	50.59055000	25.72589000
49.09999726	0.00000000	50.25836000	29.49065000
49.29999725	0.00000000	54.17076000	32.18504000
49.49999724	0.00000000	62.21702000	33.02165000
49.69999723	0.00000000	71.80733000	32.64640000
49.89999721	0.00000000	79.99508000	31.06545000
50.09999720	0.00000000	85.76525000	28.32800000
50.29999719	0.00000000	87.62302000	24.84621000
50.49999718	0.00000000	84.18430000	20.98917000
50.69999717	0.00000000	76.92544000	18.01181000
50.89999715	0.00000000	68.03641000	17.22441000
51.09999714	0.00000000	59.56569000	19.12524000
51.29999713	0.00000000	53.79552000	22.52091000
51.49999712	0.00000000	52.21457000	26.42101000
51.69999711	0.00000000	54.91510000	29.90895000
51.89999710	0.00000000	61.06053000	32.64640000
52.09999708	0.00000000	69.15600000	34.14124000
52.29999707	0.00000000	76.79011000	33.76599000
52.49999706	0.00000000	81.80979000	31.44069000
52.69999705	0.00000000	82.60334000	28.00197000
52.89999704	0.00000000	79.57676000	24.15108000
53.09999702	0.00000000	73.76353000	21.08145000
53.29999701	0.00000000	66.49852000	19.54355000
53.49999700	0.00000000	59.98400000	19.87574000
53.69999699	0.00000000	56.49606000	21.77658000
53.89999698	0.00000000	56.44685000	24.10187000
54.09999696	0.00000000	59.56569000	26.79626000
54.29999695	0.00000000	65.29281000	29.07234000
54.49999694	0.00000000	71.80733000	29.86589000
54.69999693	0.00000000	76.79011000	29.49065000
54.89999692	0.00000000	79.15845000	27.95891000
55.09999691	0.00000000	78.37106000	25.72589000
55.29999689	0.00000000	74.92618000	24.23720000
55.49999688	0.00000000	69.52509000	24.19414000
55.69999687	0.00000000	63.84719000	25.30758000
55.89999686	0.00000000	59.94094000	26.88853000
56.09999685	0.00000000	58.72908000	28.79552000
56.29999683	0.00000000	59.52263000	30.64714000
56.49999682	0.00000000	62.64148000	30.97933000
56.69999681	0.00000000	67.57505000	29.49065000
56.89999680	0.00000000	72.18258000	26.75320000
57.09999679	0.00000000	75.30142000	23.30832000
57.29999677	0.00000000	76.50713000	19.87574000
57.49999676	0.00000000	75.71973000	18.01181000
57.69999675	0.00000000	73.43134000	18.38706000
57.89999674	0.00000000	69.94955000	21.08145000
58.09999673	0.00000000	66.49852000	25.35679000
58.29999672	0.00000000	63.79798000	30.41954000
58.49999670	0.00000000	62.63533000	35.71604000
58.69999669	0.00000000	63.33661000	39.10556000
58.89999668	0.00000000	64.86835000	38.74261000
59.09999667	0.00000000	66.82455000	35.29773000
59.29999666	0.00000000	69.10678000	29.44759000
59.49999664	0.00000000	70.64468000	22.19488000
59.69999663	0.00000000	71.11221000	15.69267000
59.89999662	0.00000000	71.06299000	12.20472000
60.09999661	0.00000000	70.31865000	12.15551000
60.29999660	0.00000000	68.82996000	15.27436000
60.49999658	0.00000000	68.03641000	21.12451000
60.69999657	0.00000000	67.61810000	28.79552000
60.89999656	0.00000000	67.24901000	36.45423000
61.09999655	0.00000000	67.66117000	41.43085000
61.29999654	0.00000000	68.36859000	42.63656000
61.49999653	0.00000000	69.15600000	39.89911000
61.69999651	0.00000000	69.48203000	33.76599000
61.89999650	0.00000000	69.15600000	25.68282000
62.09999649	0.00000000	68.36859000	17.96260000
62.29999648	0.00000000	67.57505000	12.15551000
62.49999647	0.00000000	66.40624000	9.51033400
62.69999645	0.00000000	65.33588000	11.04208000
62.89999644	0.00000000	65.33588000	16.38779000
63.09999643	0.00000000	66.45546000	23.72662000
63.29999642	0.00000000	67.99335000	31.44069000
63.49999641	0.00000000	69.53124000	37.99213000
63.69999639	0.00000000	70.68774000	41.43085000
63.89999638	0.00000000	71.06299000	41.14788000
64.09999637	0.00000000	70.73695000	37.67224000
64.29999636	0.00000000	69.90649000	32.22810000
64.49999635	0.00000000	68.73154000	25.26452000
64.69999634	0.00000000	66.82455000	18.38706000
64.89999632	0.00000000	65.33588000	13.73647000
65.09999631	0.00000000	64.91756000	12.15551000
65.29999630	0.00000000	65.29281000	13.60113000
65.49999629	0.00000000	66.45546000	17.03986000
65.69999628	0.00000000	67.94415000	20.94611000
65.89999626	0.00000000	69.10678000	25.30758000
66.09999625	0.00000000	69.53124000	29.90895000
66.29999624	0.00000000	69.53124000	33.76599000
66.49999623	0.00000000	69.10678000	35.71604000
66.69999622	0.00000000	67.94415000	35.75910000
66.89999620	0.00000000	66.45546000	34.22736000
67.09999619	0.00000000	65.29281000	31.53297000
67.29999618	0.00000000	64.96062000	28.42027000
67.49999617	0.00000000	65.71111000	25.26452000
67.69999616	0.00000000	67.66117000	22.15182000
67.89999615	0.00000000	69.94955000	19.40822000
68.09999613	0.00000000	72.26870000	17.50123000
68.29999612	0.00000000	73.76353000	16.71383000
68.49999611	0.00000000	73.72047000	17.50123000
68.69999610	0.00000000	71.76427000	19.45743000
68.89999609	0.00000000	67.94415000	22.61319000
69.09999607	0.00000000	63.75492000	26.88238000
69.29999606	0.00000000	60.63607000	31.48376000
69.49999605	0.00000000	59.05511000	35.34079000
69.69999604	0.00000000	59.09818000	37.24778000
69.89999603	0.00000000	61.10359000	36.87869000
70.09999601	0.00000000	65.37893000	34.18430000
70.29999600	0.00000000	71.10605000	29.90895000
70.49999599	0.00000000	76.50713000	24.88927000
70.69999598	0.00000000	79.95201000	19.87574000
70.89999597	0.00000000	80.73941000	16.38779000
71.09999596	0.00000000	78.41412000	14.84990000
71.29999594	0.00000000	73.80659000	15.64960000
71.49999593	0.00000000	67.99335000	19.08218000
71.69999592	0.00000000	62.17396000	23.64050000
71.89999591	0.00000000	57.51722000	27.95275000
72.09999590	0.00000000	54.86589000	31.44069000
72.29999588	0.00000000	55.24114000	33.76599000
72.49999587	0.00000000	58.67987000	34.14124000
72.69999586	0.00000000	63.71186000	32.60334000
72.89999585	0.00000000	69.57431000	29.58292000
73.09999584	0.00000000	75.30142000	26.14419000
73.29999582	0.00000000	79.15845000	23.81890000
73.49999581	0.00000000	79.95201000	22.61319000
73.69999580	0.00000000	78.08808000	22.57013000
73.89999579	0.00000000	74.18184000	23.30832000
74.09999578	0.00000000	69.19906000	24.10187000
74.29999577	0.00000000	64.13016000	25.21530000
74.49999575	0.00000000	60.31004000	25.95964000
74.69999574	0.00000000	58.31693000	25.59055000
74.89999573	0.00000000	58.72908000	24.84621000
75.09999572	0.00000000	60.96825000	23.68356000
75.29999571	0.00000000	64.45004000	22.61319000
75.49999569	0.00000000	67.90108000	22.65625000
75.69999568	0.00000000	70.64468000	24.19414000
75.89999567	0.00000000	72.22563000	26.88853000
76.09999566	0.00000000	72.64394000	29.95201000
76.29999565	0.00000000	72.22563000	32.60334000
76.49999563	0.00000000	70.73695000	33.71678000
76.69999562	0.00000000	68.82996000	32.56028000
76.89999561	0.00000000	67.66117000	29.49065000
77.09999560	0.00000000	66.87376000	25.22145000
77.29999559	0.00000000	66.87376000	20.61393000
77.49999558	0.00000000	67.57505000	16.76304000
77.69999556	0.00000000	67.90108000	14.84990000
77.89999555	0.00000000	67.57505000	15.27436000
78.09999554	0.00000000	66.78149000	18.33784000
78.29999553	0.00000000	66.03100000	23.30832000
78.49999552	0.00000000	65.24360000	28.37721000
78.69999550	0.00000000	64.91756000	33.06471000
78.89999549	0.00000000	65.33588000	36.87869000
79.09999548	0.00000000	66.87376000	38.36737000
79.29999547	0.00000000	69.15600000	36.82948000
79.49999546	0.00000000	71.06299000	32.60334000
79.69999544	0.00000000	72.26870000	26.88853000
79.89999543	0.00000000	72.64394000	21.49975000
80.09999542	0.00000000	72.22563000	17.96260000
80.29999541	0.00000000	70.64468000	16.33858000
80.49999540	0.00000000	67.94415000	16.33858000
80.69999539	0.00000000	64.91756000	17.91953000
80.89999537	0.00000000	62.59227000	20.98917000
81.09999536	0.00000000	61.79872000	24.84621000
81.29999535	0.00000000	62.21702000	28.37721000
81.49999534	0.00000000	64.17323000	31.48991000
81.69999533	0.00000000	67.52583000	33.76599000
81.89999531	0.00000000	70.22637000	34.18430000
82.09999530	0.00000000	71.48744000	33.11393000
82.29999529	0.00000000	72.26870000	31.53297000
82.49999528	0.00000000	72.18258000	29.53371000
82.69999527	0.00000000	70.68774000	26.79626000
82.89999525	0.00000000	68.41166000	23.68356000
83.09999524	0.00000000	66.49852000	20.61393000
83.29999523	0.00000000	65.24360000	18.33784000
83.49999522	0.00000000	64.49311000	17.91953000
83.69999521	0.00000000	64.13016000	18.98991000
83.89999520	0.00000000	64.91756000	20.61393000
84.09999518	0.00000000	66.36318000	22.98843000
84.29999517	0.00000000	67.52583000	26.46407000
84.49999516	0.00000000	67.95029000	29.90895000
84.69999515	0.00000000	67.99335000	32.64640000
84.89999514	0.00000000	67.99335000	34.14124000
85.09999512	0.00000000	67.99335000	33.76599000
85.29999511	0.00000000	67.99335000	31.44069000
85.49999510	0.00000000	68.03641000	27.95275000
85.69999509	0.00000000	68.41166000	23.68356000
85.89999508	0.00000000	69.15600000	19.50049000
86.09999506	0.00000000	69.48203000	16.75689000
86.29999505	0.00000000	69.10678000	16.01255000
86.49999504	0.00000000	67.99335000	17.13213000
86.69999503	0.00000000	66.82455000	20.28789000
86.89999502	0.00000000	66.03100000	24.47712000
87.09999501	0.00000000	65.24360000	29.16461000
87.29999499	0.00000000	64.91756000	32.97859000
87.49999498	0.00000000	65.24360000	35.29773000
87.69999497	0.00000000	66.07406000	35.24852000
87.89999496	0.00000000	67.19980000	32.60334000
88.09999495	0.00000000	68.78075000	28.37721000
88.29999493	0.00000000	69.90649000	23.72662000
88.49999492	0.00000000	70.68774000	19.54355000
88.69999491	0.00000000	70.64468000	17.22441000
88.89999490	0.00000000	69.53124000	17.59350000
89.09999489	0.00000000	67.99335000	19.87574000
89.29999487	0.00000000	66.45546000	23.77584000
89.49999486	0.00000000	65.29281000	28.32800000
89.69999485	0.00000000	64.86835000	32.22810000
89.89999484	0.00000000	64.86835000	34.51033000
90.09999483	0.00000000	65.29281000	34.87943000
90.29999482	0.00000000	66.40624000	32.51107000
90.49999480	0.00000000	67.57505000	28.00197000
90.69999479	0.00000000	68.36859000	22.98843000
90.89999478	0.00000000	69.10678000	19.16830000
91.09999477	0.00000000	69.10678000	17.18135000
91.29999476	0.00000000	68.41166000	17.63656000
91.49999474	0.00000000	68.03641000	20.29404000
91.69999473	0.00000000	67.99335000	24.88927000
91.89999472	0.00000000	67.99335000	29.44759000
92.09999471	0.00000000	67.99335000	32.60334000
92.29999470	0.00000000	67.99335000	34.14124000
92.49999468	0.00000000	67.95029000	33.71678000
92.69999467	0.00000000	67.57505000	31.02239000
92.89999466	0.00000000	66.78149000	26.79626000
93.09999465	0.00000000	66.03100000	22.23794000
93.29999464	0.00000000	65.24360000	18.75615000
93.49999463	0.00000000	64.86835000	17.59350000
93.69999461	0.00000000	64.86835000	18.33784000
93.89999460	0.00000000	65.33588000	21.08145000
94.09999459	0.00000000	66.87376000	25.26452000
94.29999458	0.00000000	69.15600000	29.49065000
94.49999457	0.00000000	71.06299000	32.51722000
94.69999455	0.00000000	72.26870000	33.29847000
94.89999454	0.00000000	72.60088000	31.39763000
95.09999453	0.00000000	71.80733000	28.00197000
95.29999452	0.00000000	69.48203000	24.15108000
95.49999451	0.00000000	66.45546000	21.03838000
95.69999449	0.00000000	63.71186000	19.08218000
95.89999448	0.00000000	61.75566000	18.33784000
96.09999447	0.00000000	60.59301000	19.54355000
96.29999446	0.00000000	60.63607000	22.57013000
96.49999445	0.00000000	62.21702000	26.37795000
96.69999444	0.00000000	65.29281000	29.39837000
96.89999442	0.00000000	69.15600000	30.64714000
97.09999441	0.00000000	72.60088000	30.28420000
97.29999440	0.00000000	74.96924000	29.11540000
97.49999439	0.00000000	75.71973000	26.83932000
97.69999438	0.00000000	74.96924000	24.56324000
97.89999436	0.00000000	72.55782000	23.30832000
98.09999435	0.00000000	68.73154000	22.15182000
98.29999434	0.00000000	64.13016000	21.49975000
98.49999433	0.00000000	60.67913000	22.57013000
98.69999432	0.00000000	59.05511000	24.42790000
98.89999430	0.00000000	59.05511000	25.59055000
99.09999429	0.00000000	60.59301000	26.42101000
99.29999428	0.00000000	63.33661000	26.79626000
99.49999427	0.00000000	66.82455000	26.83932000
99.69999426	0.00000000	70.64468000	26.83932000
99.89999425	0.00000000	73.34522000	26.83932000
100.09999423	0.00000000	74.22490000	26.88238000
100.29999422	0.00000000	74.22490000	27.25763000
100.49999421	0.00000000	73.38828000	27.95275000
100.69999420	0.00000000	71.06299000	27.95275000
100.89999419	0.00000000	67.99335000	27.17150000
101.09999417	0.00000000	64.87450000	26.00270000
101.29999416	0.00000000	62.17396000	24.05881000
101.49999415	0.00000000	60.63607000	22.19488000
101.69999414	0.00000000	60.59301000	21.03838000
101.89999413	0.00000000	61.75566000	21.03838000
102.09999411	0.00000000	63.71186000	22.19488000
102.29999410	0.00000000	66.40624000	24.14493000
102.49999409	0.00000000	69.10678000	26.83932000
102.69999408	0.00000000	71.06299000	29.53371000
102.89999407	0.00000000	72.22563000	31.44069000
103.09999406	0.00000000	72.22563000	32.18504000
103.29999404	0.00000000	71.06299000	31.02239000
103.49999403	0.00000000	69.15600000	28.37721000
103.69999402	0.00000000	66.82455000	25.30758000
103.89999401	0.00000000	64.86835000	22.52091000
104.09999400	0.00000000	63.33661000	20.23868000
104.29999398	0.00000000	62.54921000	18.76230000
104.49999397	0.00000000	62.86909000	19.50049000
104.69999396	0.00000000	63.33661000	21.72736000
104.89999395	0.00000000	64.54848000	24.14493000
105.09999394	0.00000000	67.15059000	27.21457000
105.29999392	0.00000000	69.02066000	30.18578000
105.49999391	0.00000000	69.53124000	30.97933000
105.69999390	0.00000000	69.53124000	29.95201000
105.89999389	0.00000000	69.10678000	28.37721000
106.09999388	0.00000000	67.94415000	26.42101000
106.29999387	0.00000000	66.45546000	24.10187000
106.49999385	0.00000000	65.29281000	22.23794000
106.69999384	0.00000000	64.86835000	21.45669000
106.89999383	0.00000000	64.86835000	22.19488000
107.09999382	0.00000000	65.29281000	23.68356000
107.29999381	0.00000000	66.45546000	25.26452000
107.49999379	0.00000000	67.94415000	26.79626000
107.69999378	0.00000000	69.06373000	27.95275000
107.89999377	0.00000000	69.10678000	28.32800000
108.09999376	0.00000000	68.36859000	27.95275000
108.29999375	0.00000000	67.57505000	26.79626000
108.49999374	0.00000000	66.40624000	25.26452000
108.69999372	0.00000000	65.29281000	23.72662000
108.89999371	0.00000000	64.86835000	22.61319000
109.09999370	0.00000000	64.86835000	22.61319000
109.29999369	0.00000000	65.29281000	23.72662000
109.49999368	0.00000000	66.45546000	25.26452000
109.69999366	0.00000000	67.94415000	26.79626000
109.89999365	0.00000000	69.10678000	27.95275000
110.09999364	0.00000000	69.48203000	28.32800000
110.29999363	0.00000000	69.15600000	28.00197000
110.49999362	0.00000000	68.36859000	27.21457000
110.69999360	0.00000000	67.57505000	26.42101000
110.89999359	0.00000000	66.40624000	25.21530000
111.09999358	0.00000000	65.29281000	23.72662000
111.29999357	0.00000000	64.86835000	22.57013000
111.49999356	0.00000000	64.86835000	22.19488000
111.69999355	0.00000000	65.24360000	22.57013000
111.89999353	0.00000000	66.03100000	23.68356000
112.09999352	0.00000000	66.78149000	24.84621000
112.29999351	0.00000000	67.57505000	25.63976000
112.49999350	0.00000000	67.95029000	26.42101000
112.69999349	0.00000000	67.99335000	26.79626000
112.89999347	0.00000000	67.95029000	26.83932000
113.09999346	0.00000000	67.57505000	26.79626000
113.29999345	0.00000000	66.82455000	26.42101000
113.49999344	0.00000000	66.40624000	25.68282000
113.69999343	0.00000000	66.07406000	25.30758000
113.89999341	0.00000000	66.04330000	25.26452000
114.09999340	0.00000000	66.77534000	25.22145000
114.29999339	0.00000000	66.73843000	24.84621000
114.49999338	0.00000000	66.44931000	24.10187000
114.69999337	0.00000000	66.40624000	23.72662000
114.89999336	0.00000000	66.44931000	23.68356000
115.09999334	0.00000000	66.78149000	23.68356000
115.29999333	0.00000000	67.15059000	23.72662000
115.49999332	0.00000000	66.78149000	24.10187000
115.69999331	0.00000000	66.44931000	24.88927000
115.89999330	0.00000000	66.40624000	25.63976000
116.09999328	0.00000000	66.40624000	26.46407000
116.29999327	0.00000000	66.36318000	27.17150000
116.49999326	0.00000000	66.03100000	27.58366000
116.69999325	0.00000000	65.66190000	27.21457000
116.89999324	0.00000000	66.03100000	26.83932000
117.09999322	0.00000000	66.40624000	26.37795000
117.29999321	0.00000000	66.82455000	25.26452000
117.49999320	0.00000000	67.61810000	24.10187000
117.69999319	0.00000000	68.32554000	23.35138000
117.89999318	0.00000000	68.73769000	22.93922000
118.09999317	0.00000000	68.36859000	23.35138000
118.29999315	0.00000000	67.99335000	24.05881000
118.49999314	0.00000000	67.52583000	24.88927000
118.69999313	0.00000000	66.40624000	25.63976000
118.89999312	0.00000000	65.29281000	26.42101000
119.09999311	0.00000000	64.82529000	26.79626000
119.29999309	0.00000000	64.45004000	26.83932000
119.49999308	0.00000000	64.13016000	26.79626000
119.69999307	0.00000000	64.86835000	26.42101000
119.89999306	0.00000000	65.98794000	25.72589000
120.09999305	0.00000000	66.82455000	25.68282000
120.29999303	0.00000000	67.99335000	25.95964000
120.49999302	0.00000000	69.10678000	25.21530000
120.69999301	0.00000000	69.53124000	24.15108000
120.89999300	0.00000000	69.53124000	23.77584000
121.09999299	0.00000000	69.10678000	24.05881000
121.29999298	0.00000000	67.94415000	24.47096000
121.49999296	0.00000000	66.40624000	24.47712000
121.69999295	0.00000000	64.86835000	24.88927000
121.89999294	0.00000000	63.71186000	25.26452000
122.09999293	0.00000000	63.33661000	25.68282000
122.29999292	0.00000000	63.71186000	26.42101000
122.49999290	0.00000000	64.82529000	26.79626000
122.69999289	0.00000000	65.98794000	26.83932000
122.89999288	0.00000000	66.78149000	26.83932000
123.09999287	0.00000000	67.61810000	26.83932000
123.29999286	0.00000000	68.36859000	26.79626000
123.49999284	0.00000000	69.10678000	26.42101000
123.69999283	0.00000000	69.10678000	25.63976000
123.89999282	0.00000000	68.36859000	24.88927000
124.09999281	0.00000000	67.61810000	24.10187000
124.29999280	0.00000000	66.82455000	23.77584000
124.49999279	0.00000000	66.40624000	24.10187000
124.69999277	0.00000000	65.98794000	24.84621000
124.89999276	0.00000000	65.24360000	25.22145000
125.09999275	0.00000000	64.86835000	25.26452000
125.29999274	0.00000000	64.82529000	25.30758000
125.49999273	0.00000000	64.86835000	25.68282000
125.69999271	0.00000000	65.29281000	26.42101000
125.89999270	0.00000000	66.40624000	26.74705000
126.09999269	0.00000000	67.52583000	26.42101000
126.29999268	0.00000000	67.99335000	25.68282000
126.49999267	0.00000000	68.36859000	25.30758000
126.69999265	0.00000000	68.73769000	25.26452000
126.89999264	0.00000000	68.32554000	25.22145000
127.09999263	0.00000000	67.57505000	24.84621000
127.29999262	0.00000000	66.40624000	24.10187000
127.49999261	0.00000000	65.24360000	23.77584000
127.69999260	0.00000000	64.49311000	24.10187000
127.89999258	0.00000000	64.03790000	24.84621000
128.09999257	0.00000000	64.07480000	25.22145000
128.29999256	0.00000000	64.13016000	25.26452000
128.49999255	0.00000000	65.29281000	25.26452000
128.69999254	0.00000000	67.10752000	25.26452000
128.89999252	0.00000000	67.90108000	25.26452000
129.09999251	0.00000000	67.99335000	25.26452000
129.29999250	0.00000000	67.95029000	25.26452000
129.49999249	0.00000000	67.57505000	25.22145000
129.69999248	0.00000000	66.78149000	24.88927000
129.89999246	0.00000000	65.98794000	24.52018000
130.09999245	0.00000000	64.82529000	24.84621000
130.29999244	0.00000000	63.75492000	24.84621000
130.49999243	0.00000000	63.75492000	24.52018000
130.69999242	0.00000000	64.82529000	24.88927000
130.89999241	0.00000000	65.98794000	25.26452000
131.09999239	0.00000000	66.78149000	25.63976000
131.29999238	0.00000000	67.57505000	26.00270000
131.49999237	0.00000000	67.95029000	25.59055000
131.69999236	0.00000000	67.95029000	24.88927000
131.89999235	0.00000000	67.57505000	24.10187000
132.09999233	0.00000000	66.78149000	23.72662000
132.29999232	0.00000000	66.03100000	23.68356000
132.49999231	0.00000000	65.24360000	23.68356000
132.69999230	0.00000000	64.86835000	23.72662000
132.89999229	0.00000000	64.86835000	24.15108000
133.09999227	0.00000000	65.24360000	25.26452000
133.29999226	0.00000000	65.98794000	26.37795000
133.49999225	0.00000000	66.36318000	26.79626000
133.69999224	0.00000000	66.40624000	26.83932000
133.89999223	0.00000000	66.40624000	26.79626000
134.09999222	0.00000000	66.40624000	26.37795000
134.29999220	0.00000000	66.40624000	25.26452000
134.49999219	0.00000000	66.40624000	24.15108000
134.69999218	0.00000000	66.40624000	23.68356000
134.89999217	0.00000000	66.40624000	23.30832000
135.09999216	0.00000000	66.44931000	22.98843000
135.29999214	0.00000000	66.82455000	23.72662000
135.49999213	0.00000000	67.52583000	24.79700000
135.69999212	0.00000000	67.48277000	25.22145000
135.89999211	0.00000000	66.40624000	25.30758000
136.09999210	0.00000000	65.29281000	25.68282000
136.29999208	0.00000000	64.86835000	26.42101000
136.49999207	0.00000000	64.78223000	26.79626000
136.69999206	0.00000000	64.45004000	26.79626000
136.89999205	0.00000000	64.13016000	26.42101000
137.09999204	0.00000000	64.86835000	25.68282000
137.29999203	0.00000000	65.98794000	25.26452000
137.49999201	0.00000000	66.78149000	24.84621000
137.69999200	0.00000000	67.57505000	24.10187000
137.89999199	0.00000000	67.95029000	23.72662000
138.09999198	0.00000000	67.95029000	23.68356000
138.29999197	0.00000000	67.52583000	23.72662000
138.49999195	0.00000000	66.40624000	24.10187000
138.69999194	0.00000000	65.29281000	24.84621000
138.89999193	0.00000000	64.86835000	25.26452000
139.09999192	0.00000000	64.82529000	25.63976000
139.29999191	0.00000000	64.82529000	26.04577000
139.49999189	0.00000000	64.86835000	26.05807000
139.69999188	0.00000000	65.24360000	26.46407000
139.89999187	0.00000000	65.98794000	26.74705000
140.09999186	0.00000000	66.36318000	26.37795000
140.29999185	0.00000000	66.44931000	25.26452000
140.49999184	0.00000000	66.78149000	24.15108000
140.69999182	0.00000000	67.15059000	23.72662000
140.89999181	0.00000000	66.78149000	23.68356000
141.09999180	0.00000000	66.40624000	23.68356000
141.29999179	0.00000000	65.98794000	23.72662000
141.49999178	0.00000000	65.24360000	24.15108000
141.69999176	0.00000000	64.91756000	25.26452000
141.89999175	0.00000000	65.24360000	26.37795000
142.09999174	0.00000000	65.98794000	26.79626000
142.29999173	0.00000000	66.31397000	26.83932000
142.49999172	0.00000000	66.03100000	26.79626000
142.69999170	0.00000000	65.66190000	26.42101000
142.89999169	0.00000000	65.98794000	25.63976000
143.09999168	0.00000000	65.93873000	24.88927000
143.29999167	0.00000000	65.24360000	24.05881000
143.49999166	0.00000000	64.86835000	23.30832000
143.69999165	0.00000000	64.86835000	22.57013000
143.89999163	0.00000000	65.24360000	22.61319000
144.09999162	0.00000000	65.98794000	23.68356000
144.29999161	0.00000000	66.36318000	24.79700000
144.49999160	0.00000000	66.40624000	25.26452000
144.69999159	0.00000000	66.40624000	25.68282000
144.89999157	0.00000000	66.40624000	26.42101000
145.09999156	0.00000000	66.40624000	26.74705000
145.29999155	0.00000000	66.36318000	26.42101000
145.49999154	0.00000000	65.93873000	25.63976000
145.69999153	0.00000000	64.91756000	24.93233000
145.89999151	0.00000000	64.50541000	24.47712000
146.09999150	0.00000000	65.19439000	24.47096000
146.29999149	0.00000000	65.20053000	24.05881000
146.49999148	0.00000000	65.29281000	23.72662000
146.69999147	0.00000000	65.98794000	23.72662000
146.89999146	0.00000000	66.36318000	24.10187000
147.09999144	0.00000000	66.40624000	24.84621000
147.29999143	0.00000000	66.40624000	25.26452000
147.49999142	0.00000000	66.40624000	25.68282000
147.69999141	0.00000000	66.36318000	26.42101000
147.89999140	0.00000000	65.98794000	26.79626000
148.09999138	0.00000000	65.24360000	26.83932000
148.29999137	0.00000000	64.86835000	26.79626000
148.49999136	0.00000000	64.82529000	26.42101000
148.69999135	0.00000000	64.82529000	25.68282000
148.89999134	0.00000000	64.86835000	25.30758000
149.09999132	0.00000000	65.24360000	25.22145000
149.29999131	0.00000000	65.98794000	24.88927000
149.49999130	0.00000000	66.36318000	24.52018000
149.69999129	0.00000000	66.40624000	24.88927000
149.89999128	0.00000000	66.40624000	25.22145000
150.09999127	0.00000000	66.40624000	25.30758000
150.29999125	0.00000000	66.40624000	25.68282000
150.49999124	0.00000000	66.36318000	26.37795000
150.69999123	0.00000000	65.98794000	26.37795000
150.89999122	0.00000000	65.24360000	25.68282000
151.09999121	0.00000000	64.86835000	25.30758000
151.29999119	0.00000000	64.82529000	25.26452000
151.49999118	0.00000000	64.82529000	25.22145000
151.69999117	0.00000000	64.82529000	24.84621000
151.89999116	0.00000000	64.86835000	24.10187000
152.09999115	0.00000000	65.24360000	23.77584000
152.29999113	0.00000000	65.98794000	24.10187000
152.49999112	0.00000000	66.36318000	24.84621000
152.69999111	0.00000000	66.40624000	25.22145000
152.89999110	0.00000000	66.40624000	25.26452000
153.09999109	0.00000000	66.40624000	25.26452000
153.29999108	0.00000000	66.36318000	25.26452000
153.49999106	0.00000000	65.98794000	25.26452000
153.69999105	0.00000000	65.24360000	25.26452000
153.89999104	0.00000000	64.82529000	25.26452000
154.09999103	0.00000000	64.45004000	25.26452000
154.29999102	0.00000000	64.08095000	25.26452000
154.49999100	0.00000000	64.45004000	25.26452000
154.69999099	0.00000000	64.78223000	25.26452000
154.89999098	0.00000000	64.86835000	25.22145000
155.09999097	0.00000000	65.24360000	24.84621000
155.29999096	0.00000000	65.98794000	24.10187000
155.49999094	0.00000000	66.36318000	23.72662000
155.69999093	0.00000000	66.40624000	23.72662000
155.89999092	0.00000000	66.40624000	24.10187000
156.09999091	0.00000000	66.36318000	24.84621000
156.29999090	0.00000000	65.98794000	25.22145000
156.49999089	0.00000000	65.24360000	25.26452000
156.69999087	0.00000000	64.86835000	25.30758000
156.89999086	0.00000000	64.82529000	25.68282000
157.09999085	0.00000000	64.82529000	26.37795000
157.29999084	0.00000000	64.82529000	26.37795000
157.49999083	0.00000000	64.82529000	25.68282000
157.69999081	0.00000000	64.86835000	25.30758000
157.89999080	0.00000000	65.24360000	25.26452000
158.09999079	0.00000000	65.98794000	25.22145000
158.29999078	0.00000000	66.36318000	24.84621000
158.49999077	0.00000000	66.40624000	24.10187000
158.69999075	0.00000000	66.40624000	23.77584000
158.89999074	0.00000000	66.40624000	24.10187000
159.09999073	0.00000000	66.36318000	24.84621000
159.29999072	0.00000000	65.98794000	25.22145000
159.49999071	0.00000000	65.24360000	25.26452000
159.69999070	0.00000000	64.82529000	25.26452000
159.89999068	0.00000000	64.45004000	25.26452000
160.09999067	0.00000000	64.08095000	25.26452000
160.29999066	0.00000000	64.45004000	25.22145000
160.49999065	0.00000000	64.78223000	24.84621000
160.69999064	0.00000000	64.82529000	24.10187000
160.89999062	0.00000000	64.82529000	23.77584000
161.09999061	0.00000000	64.82529000	24.05881000
161.29999060	0.00000000	64.86835000	24.42790000
161.49999059	0.00000000	65.24360000	24.05881000
161.69999058	0.00000000	65.98794000	23.77584000
161.89999056	0.00000000	66.36318000	24.05881000
162.09999055	0.00000000	66.40624000	24.51402000
162.29999054	0.00000000	66.36318000	24.85236000
162.49999053	0.00000000	65.98794000	25.62746000
162.69999052	0.00000000	65.24360000	25.59055000
162.89999051	0.00000000	64.86835000	25.30758000
163.09999049	0.00000000	64.82529000	25.26452000
163.29999048	0.00000000	64.82529000	25.26452000
163.49999047	0.00000000	64.82529000	25.22145000
163.69999046	0.00000000	64.82529000	24.88927000
163.89999045	0.00000000	64.82529000	24.52018000
164.09999043	0.00000000	64.82529000	24.88927000
164.29999042	0.00000000	64.82529000	25.17224000
164.49999041	0.00000000	64.86835000	24.84621000
164.69999040	0.00000000	65.24360000	24.15108000
164.89999039	0.00000000	65.98794000	24.10187000
165.09999037	0.00000000	66.36318000	24.47096000
165.29999036	0.00000000	66.40624000	24.47712000
165.49999035	0.00000000	66.40624000	24.88927000
165.69999034	0.00000000	66.36318000	25.22145000
165.89999033	0.00000000	65.98794000	25.26452000
166.09999032	0.00000000	65.24360000	25.26452000
166.29999030	0.00000000	64.86835000	25.26452000
166.49999029	0.00000000	64.82529000	25.26452000
166.69999028	0.00000000	64.82529000	25.26452000
166.89999027	0.00000000	64.82529000	25.26452000
167.09999026	0.00000000	64.82529000	25.26452000
167.29999024	0.00000000	64.82529000	25.26452000
167.49999023	0.00000000	64.86835000	25.26452000
167.69999022	0.00000000	65.24360000	25.26452000
167.89999021	0.00000000	65.98794000	25.26452000
168.09999020	0.00000000	66.31397000	25.26452000
168.29999018	0.00000000	66.03100000	25.26452000
168.49999017	0.00000000	65.61884000	25.26452000
168.69999016	0.00000000	65.65575000	25.26452000
168.89999015	0.00000000	65.57578000	25.26452000
169.09999014	0.00000000	65.61269000	25.26452000
169.29999013	0.00000000	65.20053000	25.26452000
169.49999011	0.00000000	64.86835000	25.26452000
169.69999010	0.00000000	64.82529000	25.26452000
169.89999009	0.00000000	64.82529000	25.26452000
170.09999008	0.00000000	64.82529000	25.26452000
170.29999007	0.00000000	64.82529000	25.22145000
170.49999005	0.00000000	64.82529000	24.88927000
170.69999004	0.00000000	64.82529000	24.52018000
170.89999003	0.00000000	64.86835000	24.88927000
171.09999002	0.00000000	65.20053000	25.17224000
171.29999001	0.00000000	65.56963000	24.88927000
171.49998999	0.00000000	65.20053000	24.47712000
171.69998998	0.00000000	64.86835000	24.51402000
171.89998997	0.00000000	64.82529000	24.47712000
172.09998996	0.00000000	64.82529000	24.88927000
172.29998995	0.00000000	64.82529000	25.22145000
172.49998994	0.00000000	64.82529000	25.22145000
172.69998992	0.00000000	64.82529000	24.88927000
172.89998991	0.00000000	64.82529000	24.52018000
173.09998990	0.00000000	64.82529000	24.88927000
173.29998989	0.00000000	64.82529000	25.22145000
173.49998988	0.00000000	64.82529000	25.22145000
173.69998986	0.00000000	64.82529000	24.84621000
173.89998985	0.00000000	64.86835000	24.15108000
174.09998984	0.00000000	65.20053000	24.10187000
174.29998983	0.00000000	65.56963000	24.42790000
174.49998982	0.00000000	65.20053000	24.05881000
174.69998980	0.00000000	64.86835000	23.72662000
174.89998979	0.00000000	64.82529000	23.72662000
175.09998978	0.00000000	64.82529000	24.10187000
175.29998977	0.00000000	64.82529000	24.84621000
175.49998976	0.00000000	64.82529000	25.17224000
175.69998975	0.00000000	64.82529000	24.88927000
175.89998973	0.00000000	64.82529000	24.52018000
176.09998972	0.00000000	64.82529000	24.88927000
176.29998971	0.00000000	64.82529000	25.22145000
176.49998970	0.00000000	64.82529000	25.26452000
176.69998969	0.00000000	64.82529000	25.22145000
176.89998967	0.00000000	64.82529000	24.84621000
177.09998966	0.00000000	64.82529000	24.10187000
177.29998965	0.00000000	64.82529000	23.77584000
177.49998964	0.00000000	64.82529000	24.05881000
177.69998963	0.00000000	64.82529000	24.42790000
177.89998961	0.00000000	64.82529000	24.05881000
178.09998960	0.00000000	64.82529000	23.77584000
178.29998959	0.00000000	64.82529000	24.10187000
178.49998958	0.00000000	64.82529000	24.84621000
178.69998957	0.00000000	64.82529000	25.22145000
178.89998956	0.00000000	64.82529000	25.26452000
179.09998954	0.00000000	64.82529000	25.26452000
179.29998953	0.00000000	64.82529000	25.26452000
179.49998952	0.00000000	64.82529000	25.22145000
179.69998951	0.00000000	64.82529000	24.84621000
179.89998950	0.00000000	64.82529000	24.10187000
180.09998948	0.00000000	64.82529000	23.72662000
180.29998947	0.00000000	64.82529000	23.72662000
180.49998946	0.00000000	64.82529000	24.10187000
180.69998945	0.00000000	64.82529000	24.79700000
180.89998944	0.00000000	64.82529000	24.79700000
181.09998942	0.00000000	64.82529000	24.15108000
181.29998941	0.00000000	64.82529000	24.15108000
181.49998940	0.00000000	64.82529000	24.84621000
181.69998939	0.00000000	64.82529000	25.22145000
181.89998938	0.00000000	64.82529000	25.26452000
182.09998937	0.00000000	64.82529000	25.26452000
182.29998935	0.00000000	64.82529000	25.26452000
182.49998934	0.00000000	64.82529000	25.26452000
182.69998933	0.00000000	64.82529000	25.26452000
182.89998932	0.00000000	64.86835000	25.22145000
183.09998931	0.00000000	65.20053000	24.84621000
183.29998929	0.00000000	65.56963000	24.10187000
183.49998928	0.00000000	65.20053000	23.77584000
183.69998927	0.00000000	64.86835000	24.10187000
183.89998926	0.00000000	64.82529000	24.84621000
184.09998925	0.00000000	64.82529000	25.22145000
184.29998923	0.00000000	64.78223000	25.26452000
184.49998922	0.00000000	64.45004000	25.26452000
184.69998921	0.00000000	64.08095000	25.26452000
184.89998920	0.00000000	64.45004000	25.26452000
185.09998919	0.00000000	64.78223000	25.26452000
185.29998918	0.00000000	64.82529000	25.22145000
185.49998916	0.00000000	64.82529000	24.84621000
185.69998915	0.00000000	64.82529000	24.15108000
185.89998914	0.00000000	64.82529000	24.10187000
186.09998913	0.00000000	64.82529000	24.42790000
186.29998912	0.00000000	64.82529000	24.05881000
186.49998910	0.00000000	64.82529000	23.72662000
186.69998909	0.00000000	64.82529000	23.72662000
186.89998908	0.00000000	64.82529000	24.10187000
187.09998907	0.00000000	64.82529000	24.84621000
187.29998906	0.00000000	64.78223000	25.22145000
187.49998904	0.00000000	64.45004000	25.26452000
187.69998903	0.00000000	64.08095000	25.26452000
187.89998902	0.00000000	64.45004000	25.26452000
188.09998901	0.00000000	64.78223000	25.26452000
188.29998900	0.00000000	64.82529000	25.26452000
188.49998899	0.00000000	64.82529000	25.22145000
188.69998897	0.00000000	64.82529000	24.84621000
188.89998896	0.00000000	64.82529000	24.10187000
189.09998895	0.00000000	64.82529000	23.72662000
189.29998894	0.00000000	64.82529000	23.68356000
189.49998893	0.00000000	64.82529000	23.68356000
189.69998891	0.00000000	64.78223000	23.68356000
189.89998890	0.00000000	64.40699000	23.68356000
190.09998889	0.00000000	63.66264000	23.72662000
190.29998888	0.00000000	63.28740000	24.10187000
190.49998887	0.00000000	63.28740000	24.84621000
190.69998885	0.00000000	63.66264000	25.17224000
190.89998884	0.00000000	64.40699000	24.84621000
191.09998883	0.00000000	64.78223000	24.10187000
191.29998882	0.00000000	64.82529000	23.72662000
191.49998881	0.00000000	64.82529000	23.68356000
191.69998880	0.00000000	64.82529000	23.68356000
191.89998878	0.00000000	64.82529000	23.68356000
192.09998877	0.00000000	64.82529000	23.68356000
192.29998876	0.00000000	64.82529000	23.68356000
192.49998875	0.00000000	64.82529000	23.68356000
192.69998874	0.00000000	64.78223000	23.68356000
192.89998872	0.00000000	64.45004000	23.72662000
193.09998871	0.00000000	64.03790000	24.10187000
193.29998870	0.00000000	64.07480000	24.84621000
193.49998869	0.00000000	64.03790000	25.22145000
193.69998868	0.00000000	64.45004000	25.26452000
193.89998866	0.00000000	64.78223000	25.26452000
194.09998865	0.00000000	64.82529000	25.26452000
194.29998864	0.00000000	64.82529000	25.26452000
194.49998863	0.00000000	64.82529000	25.22145000
194.69998862	0.00000000	64.82529000	24.84621000
194.89998861	0.00000000	64.82529000	24.15108000
195.09998859	0.00000000	64.82529000	24.10187000
195.29998858	0.00000000	64.82529000	24.42790000
195.49998857	0.00000000	64.82529000	24.10187000
195.69998856	0.00000000	64.82529000	24.15108000
195.89998855	0.00000000	64.78223000	24.79700000
196.09998853	0.00000000	64.45004000	24.79700000
