Time	Channel A	Channel B	Channel C
(us)	(V)	(mV)	(mV)

-4.59999956	0.00000000	56.92052000	20.52780000
-4.39999957	0.00000000	56.92052000	20.52780000
-4.19999958	0.00000000	56.92052000	20.52780000
-3.99999959	0.00000000	56.92052000	20.57087000
-3.79999960	0.00000000	56.92052000	20.90305000
-3.59999962	0.00000000	56.92052000	21.26599000
-3.39999963	0.00000000	56.92052000	20.90305000
-3.19999964	0.00000000	56.92052000	20.57087000
-2.99999965	0.00000000	56.92052000	20.52780000
-2.79999966	0.00000000	56.92052000	20.52780000
-2.59999968	0.00000000	56.92052000	20.52780000
-2.39999969	0.00000000	56.92052000	20.52780000
-2.19999970	0.00000000	56.92052000	20.52780000
-1.99999971	0.00000000	56.92052000	20.52780000
-1.79999972	0.00000000	56.92052000	20.57087000
-1.59999973	0.00000000	56.92052000	20.90305000
-1.39999975	0.00000000	56.92052000	21.26599000
-1.19999976	0.00000000	56.92052000	20.94611000
-0.99999977	0.00000000	56.92052000	20.94611000
-0.79999978	0.00000000	56.92052000	21.26599000
-0.59999979	0.00000000	56.92052000	20.94611000
-0.39999981	0.15871060	56.92052000	20.98917000
-0.19999982	0.47736220	56.92052000	21.64124000
0.00000017	0.79601380	56.92052000	21.64124000
0.20000016	0.95533960	56.92052000	20.94611000
0.40000015	0.95533960	56.92052000	20.57087000
0.60000013	0.63668800	56.92052000	20.52780000
0.80000012	0.00000000	56.92052000	20.52780000
1.00000011	-0.95533960	56.92052000	20.52780000
1.20000010	-1.91129400	56.92052000	20.52780000
1.40000009	-2.54859700	56.92052000	20.57087000
1.60000008	-2.70792300	56.92052000	20.94611000
1.80000006	-2.07062000	56.92052000	21.68430000
2.00000005	-0.63668800	56.92052000	22.01033000
2.20000004	1.43331700	56.92052000	21.68430000
2.40000003	3.50393700	56.92052000	20.94611000
2.60000002	4.93786900	56.92052000	20.57087000
2.80000000	5.25652100	56.92052000	20.52780000
2.99999999	4.14124000	56.92052000	20.52780000
3.19999998	1.75196900	56.92052000	20.52780000
3.39999997	-1.43331700	56.92052000	20.52780000
3.59999996	-4.77854300	56.92052000	20.52780000
3.79999994	-7.16781500	56.92052000	20.57087000
3.99999993	-7.96444400	56.92052000	20.94611000
4.19999992	-6.69045300	56.92052000	21.68430000
4.39999991	-3.50393700	56.92052000	22.05955000
4.59999990	0.79601380	56.92052000	22.10261000
4.79999989	5.09719500	56.92052000	22.05955000
4.99999987	8.28309500	56.92052000	21.68430000
5.19999986	9.39837600	56.92052000	20.90305000
5.39999985	8.28309500	56.92052000	20.19562000
5.59999984	4.93786900	56.92052000	19.78346000
5.79999983	0.31803640	56.92052000	20.15256000
5.99999981	-4.30056600	56.96358000	20.52780000
6.19999980	-7.96444400	57.29576000	20.94611000
6.39999979	-9.39837600	57.66486000	21.68430000
6.59999978	-8.60174700	57.33883000	22.05955000
6.79999977	-5.73449800	57.33883000	22.10261000
6.99999975	-1.59264300	57.66486000	22.10261000
7.19999974	2.70792300	57.29576000	22.05955000
7.39999973	6.05315000	56.96358000	21.68430000
7.59999972	7.64579200	56.92052000	20.94611000
7.79999971	7.32714100	56.92052000	20.57087000
7.99999970	5.09719500	56.92052000	20.52780000
8.19999968	2.07062000	56.92052000	20.52780000
8.39999967	-1.27399100	56.92052000	20.52780000
8.59999966	-3.66326300	56.92052000	20.52780000
8.79999965	-5.09719500	56.92052000	20.52780000
8.99999964	-4.93786900	56.92052000	20.57087000
9.19999962	-3.82258900	56.92052000	20.90305000
9.39999961	-1.91129400	56.92052000	21.26599000
9.59999960	0.15871060	56.92052000	20.90305000
9.79999959	1.59264300	56.92052000	20.57087000
9.99999958	2.38927200	56.92052000	20.52780000
10.19999956	2.54859700	56.92052000	20.52780000
10.39999955	1.91129400	56.92052000	20.52780000
10.59999954	1.11466500	56.92052000	20.57087000
10.79999953	0.15871060	56.92052000	20.90305000
10.99999952	-0.47736220	56.92052000	21.26599000
11.19999951	-0.95533960	56.92052000	20.90305000
11.39999949	-0.95533960	56.92052000	20.57087000
11.59999948	-0.95533960	56.92052000	20.52780000
11.79999947	-0.63668800	56.87746000	20.52780000
11.99999946	-0.31803640	56.54527000	20.52780000
12.19999945	-0.15871060	56.17618000	20.52780000
12.39999943	-0.15871060	56.54527000	20.52780000
12.59999942	0.00000000	56.87746000	20.52780000
12.79999941	0.00000000	56.92052000	20.52780000
12.99999940	0.00000000	56.92052000	20.52780000
13.19999939	0.00000000	56.92052000	20.57087000
13.39999937	0.00000000	56.92052000	20.90305000
13.59999936	0.00000000	56.92052000	21.26599000
13.79999935	0.00000000	56.92052000	20.90305000
13.99999934	-0.15871060	56.92052000	20.57087000
14.19999933	-0.15871060	56.92052000	20.52780000
14.39999932	-0.15871060	56.92052000	20.52780000
14.59999930	-0.15871060	56.92052000	20.52780000
14.79999929	0.00000000	56.92052000	20.52780000
14.99999928	0.00000000	56.92052000	20.52780000
15.19999927	0.00000000	56.92052000	20.52780000
15.39999926	0.00000000	56.92052000	20.52780000
15.59999924	0.00000000	56.92052000	20.52780000
15.79999923	0.00000000	56.92052000	20.52780000
15.99999922	0.00000000	56.92052000	20.52780000
16.19999921	0.00000000	56.92052000	20.52780000
16.39999920	0.00000000	56.92052000	20.52780000
16.59999919	-0.15871060	56.92052000	20.52780000
16.79999917	-0.15871060	56.96358000	20.52780000
16.99999916	0.00000000	57.33883000	20.52780000
17.19999915	0.00000000	58.08316000	20.52780000
17.39999914	0.00000000	58.45841000	20.52780000
17.59999913	0.00000000	58.45841000	20.52780000
17.79999911	0.00000000	58.08316000	20.52780000
17.99999910	0.00000000	57.29576000	20.52780000
18.19999909	0.00000000	56.50221000	20.52780000
18.39999908	0.00000000	55.29650000	20.52780000
18.59999907	0.00000000	53.75861000	20.52780000
18.79999905	-0.15871060	52.26993000	20.52780000
18.99999904	0.00000000	51.52559000	20.52780000
19.19999903	0.00000000	52.31299000	20.52780000
19.39999902	0.00000000	54.22613000	20.52780000
19.59999901	0.00000000	57.01279000	20.52780000
19.79999900	0.00000000	60.50073000	20.52780000
19.99999898	0.00000000	64.36392000	20.52780000
20.19999897	0.00000000	67.39050000	20.52780000
20.39999896	0.00000000	68.46703000	20.52780000
20.59999895	0.00000000	66.46161000	20.52780000
20.79999894	0.00000000	61.06668000	20.52780000
20.99999892	0.00000000	53.75861000	20.57087000
21.19999891	0.00000000	46.36442000	20.90305000
21.39999890	0.00000000	40.17593000	21.30905000
21.59999889	0.00000000	36.40502000	21.27214000
21.79999888	0.00000000	36.87254000	21.30905000
21.99999886	0.00000000	42.31053000	20.90305000
22.19999885	0.00000000	51.66092000	20.52780000
22.39999884	0.00000000	63.71186000	20.15256000
22.59999883	0.00000000	76.32258000	19.83268000
22.79999882	0.00000000	85.53149000	20.57087000
22.99999881	0.00000000	88.14590000	21.64124000
23.19999879	0.00000000	83.53223000	22.05955000
23.39999878	0.00000000	71.86269000	22.10261000
23.59999877	0.00000000	55.99163000	22.10261000
23.79999876	0.00000000	38.54576000	22.10261000
23.99999875	0.00000000	23.19143000	22.10261000
24.19999873	0.00000000	14.39468000	22.05955000
24.39999872	0.00000000	14.85605000	21.64124000
24.59999871	0.00000000	25.32603000	20.47859000
24.79999870	0.00000000	43.89148000	18.94685000
24.99999869	0.00000000	66.27091000	17.40895000
25.19999867	0.00000000	87.53075000	16.25246000
25.39999866	0.00000000	102.52210000	15.87721000
25.59999865	0.00000000	107.49880000	16.29552000
25.79999864	0.00000000	100.52290000	17.91953000
25.99999863	0.00000000	83.16314000	20.98917000
26.19999862	0.00000000	59.57185000	24.84621000
26.39999860	0.00000000	34.86712000	28.32800000
26.59999859	0.00000000	14.81299000	31.02239000
26.79999858	0.00000000	4.34916300	32.09276000
26.99999857	0.00000000	5.50565900	30.46875000
27.19999856	0.00000000	17.88878000	25.82431000
27.39999854	0.00000000	39.14862000	18.89764000
27.59999853	0.00000000	64.18552000	11.55881000
27.79999852	0.00000000	86.97711000	5.33341500
27.99999851	0.00000000	102.10380000	1.15034400
28.19999850	0.00000000	106.80360000	0.50442900
28.39999848	0.00000000	100.61520000	4.77362200
28.59999847	0.00000000	84.79330000	13.27510000
28.79999846	0.00000000	63.20127000	24.14493000
28.99999845	0.00000000	41.19094000	35.71604000
29.19999844	0.00000000	23.74508000	45.28789000
29.39999843	0.00000000	14.39468000	49.88927000
29.59999841	0.00000000	14.30241000	48.31446000
29.79999840	0.00000000	22.81619000	40.50812000
29.99999839	0.00000000	37.85064000	27.39911000
30.19999838	0.00000000	56.03469000	11.93405000
30.39999837	0.00000000	73.02534000	-2.33144700
30.59999835	0.00000000	85.48843000	-12.73376000
30.79999834	0.00000000	90.93257000	-16.12943000
30.99999833	0.00000000	89.11171000	-11.52805000
31.19999832	0.00000000	80.97932000	0.08612204
31.39999831	0.00000000	68.59621000	16.34473000
31.59999829	0.00000000	54.26919000	34.09203000
31.79999828	0.00000000	41.14788000	49.51402000
31.99999827	0.00000000	32.21579000	58.80905000
32.19999826	0.00000000	29.04774000	60.34695000
32.39999825	0.00000000	31.74827000	53.74631000
32.59999824	0.00000000	39.43159000	39.85605000
32.79999822	0.00000000	50.22145000	22.10261000
32.99999821	0.00000000	61.06668000	4.31225400
33.19999820	0.00000000	70.04182000	-9.99630800
33.39999819	0.00000000	75.81815000	-17.71038000
33.59999818	0.00000000	76.97465000	-17.38435000
33.79999816	0.00000000	73.11761000	-9.25812000
33.99999815	0.00000000	65.47736000	4.63828700
34.19999814	0.00000000	56.22539000	21.64124000
34.39999813	0.00000000	48.12377000	37.85679000
34.59999812	0.00000000	42.68578000	49.84621000
34.79999810	0.00000000	41.10482000	55.27805000
34.99999809	0.00000000	43.38090000	52.95890000
35.19999808	0.00000000	48.40674000	43.75615000
35.39999807	0.00000000	55.33957000	29.86589000
35.59999806	0.00000000	62.18011000	14.85605000
35.79999805	0.00000000	66.46161000	2.07923200
35.99999803	0.00000000	67.30437000	-5.67790300
36.19999802	0.00000000	65.39124000	-7.21579700
36.39999801	0.00000000	61.10974000	-2.23917300
36.59999800	0.00000000	55.38263000	8.16313900
36.79999799	0.00000000	50.03691000	20.81078000
36.99999797	0.00000000	46.91806000	32.74483000
37.19999796	0.00000000	46.49975000	40.41584000
37.39999795	0.00000000	48.45595000	42.03986000
37.59999794	0.00000000	52.68823000	37.85679000
37.79999793	0.00000000	58.03395000	29.44759000
37.99999791	0.00000000	62.69069000	19.45743000
38.19999790	0.00000000	65.76033000	10.62377000
38.39999789	0.00000000	66.55389000	5.28420300
38.59999788	0.00000000	64.64690000	5.28420300
38.79999787	0.00000000	61.19586000	10.58071000
38.99999786	0.00000000	56.87746000	18.98991000
39.19999784	0.00000000	52.26993000	27.86663000
39.39999783	0.00000000	48.40674000	35.07013000
39.59999782	0.00000000	46.45054000	38.13361000
39.79999781	0.00000000	46.40748000	35.44537000
39.99999780	0.00000000	47.98843000	28.56176000
40.19999778	0.00000000	51.10728000	18.94685000
40.39999777	0.00000000	55.33957000	9.41806000
40.59999776	0.00000000	59.57185000	3.23572800
40.79999775	0.00000000	62.73376000	1.70398600
40.99999774	0.00000000	64.68996000	5.19192900
41.19999772	0.00000000	65.43430000	13.22589000
41.39999771	0.00000000	64.27164000	23.21604000
41.59999770	0.00000000	61.57111000	32.42495000
41.79999769	0.00000000	58.08316000	38.55192000
41.99999768	0.00000000	54.17691000	39.34547000
42.19999767	0.00000000	50.73204000	35.20546000
42.39999765	0.00000000	48.36368000	27.86663000
42.59999764	0.00000000	47.61319000	19.03912000
42.79999763	0.00000000	48.36368000	10.95595000
42.99999762	0.00000000	50.68897000	5.93626900
43.19999761	0.00000000	53.71555000	4.73056000
43.39999759	0.00000000	56.45300000	7.37573800
43.59999758	0.00000000	58.40920000	12.76452000
43.79999757	0.00000000	59.61491000	19.27288000
43.99999756	0.00000000	59.99015000	25.44906000
44.19999755	0.00000000	59.66412000	29.31225000
44.39999753	0.00000000	58.91978000	30.60408000
44.59999752	0.00000000	58.54454000	29.77362000
44.79999751	0.00000000	58.50147000	27.11614000
44.99999750	0.00000000	58.45841000	22.85310000
45.19999749	0.00000000	58.03395000	18.66388000
45.39999748	0.00000000	56.87746000	15.13902000
45.59999746	0.00000000	55.29650000	13.22589000
45.79999745	0.00000000	53.29109000	13.18282000
45.99999744	0.00000000	50.59670000	14.72072000
46.19999743	0.00000000	47.94537000	17.36589000
46.39999742	0.00000000	46.45054000	20.10950000
46.59999740	0.00000000	46.82579000	22.43479000
46.79999739	0.00000000	49.24335000	24.37869000
46.99999738	0.00000000	53.52485000	25.12918000
47.19999737	0.00000000	59.70718000	24.79700000
47.39999736	0.00000000	65.80955000	23.59129000
47.59999734	0.00000000	70.09104000	21.64124000
47.79999733	0.00000000	71.57972000	18.98991000
47.99999732	0.00000000	69.58046000	16.67077000
48.19999731	0.00000000	63.81028000	15.50197000
48.39999730	0.00000000	55.71481000	15.13902000
48.59999729	0.00000000	47.61319000	16.29552000
48.79999727	0.00000000	41.01255000	18.57160000
48.99999726	0.00000000	37.61073000	20.94611000
49.19999725	0.00000000	38.40428000	23.68356000
49.39999724	0.00000000	43.84842000	26.32874000
49.59999723	0.00000000	52.64517000	27.82357000
49.79999721	0.00000000	62.27239000	27.44832000
49.99999720	0.00000000	69.99876000	25.12918000
50.19999719	0.00000000	74.28026000	21.68430000
50.39999718	0.00000000	74.28026000	17.78420000
50.59999717	0.00000000	69.99876000	14.34547000
50.79999715	0.00000000	62.27239000	12.06939000
50.99999714	0.00000000	52.68823000	12.06939000
51.19999713	0.00000000	44.26673000	14.34547000
51.39999712	0.00000000	39.60999000	17.83341000
51.59999711	0.00000000	39.56693000	22.10261000
51.79999710	0.00000000	43.79921000	26.28568000
51.99999708	0.00000000	51.06422000	28.98007000
52.19999707	0.00000000	59.15354000	29.40452000
52.39999706	0.00000000	65.71727000	27.86663000
52.59999705	0.00000000	69.58046000	24.79700000
52.79999704	0.00000000	69.53740000	20.94611000
52.99999702	0.00000000	65.39124000	17.45817000
53.19999701	0.00000000	58.83366000	14.76378000
53.39999700	0.00000000	51.93774000	13.60113000
53.59999699	0.00000000	46.13066000	14.34547000
53.79999698	0.00000000	43.47318000	16.25246000
53.99999696	0.00000000	44.22367000	18.98991000
54.19999695	0.00000000	48.45595000	21.96727000
54.39999694	0.00000000	54.92125000	23.91732000
54.59999693	0.00000000	61.06668000	23.96653000
54.79999692	0.00000000	65.34202000	23.21604000
54.99999691	0.00000000	66.87991000	21.64124000
55.19999689	0.00000000	65.34202000	19.40822000
55.39999688	0.00000000	61.10974000	17.91953000
55.59999687	0.00000000	55.38263000	17.83341000
55.79999686	0.00000000	49.98769000	18.66388000
55.99999685	0.00000000	46.54281000	20.20177000
56.19999683	0.00000000	45.71235000	22.84695000
56.39999682	0.00000000	47.61319000	24.66781000
56.59999681	0.00000000	51.10728000	24.71087000
56.79999680	0.00000000	55.75787000	23.12992000
56.99999679	0.00000000	60.69144000	20.06029000
57.19999677	0.00000000	63.76107000	16.25246000
57.39999676	0.00000000	64.22859000	13.18282000
57.59999675	0.00000000	62.69069000	11.69414000
57.79999674	0.00000000	59.61491000	12.48770000
57.99999673	0.00000000	55.80708000	15.96334000
58.19999672	0.00000000	52.68823000	20.94611000
58.39999670	0.00000000	50.73204000	26.32874000
58.59999669	0.00000000	49.94463000	30.56102000
58.79999668	0.00000000	50.73204000	32.46801000
58.99999667	0.00000000	52.59596000	31.67446000
59.19999666	0.00000000	54.92125000	27.77436000
59.39999664	0.00000000	56.82825000	21.64124000
59.59999663	0.00000000	58.03395000	14.72072000
59.79999662	0.00000000	58.40920000	8.95669300
59.99999661	0.00000000	58.03395000	5.88705700
60.19999660	0.00000000	56.92052000	6.30536400
60.39999658	0.00000000	55.75787000	10.53765000
60.59999657	0.00000000	55.00738000	17.45817000
60.79999656	0.00000000	54.59522000	25.17224000
60.99999655	0.00000000	54.96432000	32.09276000
61.19999654	0.00000000	55.33957000	36.27584000
61.39999653	0.00000000	55.75787000	36.27584000
61.59999651	0.00000000	56.50221000	32.09276000
61.79999650	0.00000000	56.82825000	25.17224000
61.99999649	0.00000000	56.45300000	17.41511000
62.19999648	0.00000000	55.29650000	10.07013000
62.39999647	0.00000000	53.80167000	4.77362200
62.59999645	0.00000000	52.64517000	3.61097400
62.79999644	0.00000000	52.26993000	7.00049200
62.99999643	0.00000000	52.64517000	13.13976000
63.19999642	0.00000000	53.80167000	20.52780000
63.39999641	0.00000000	55.33957000	27.82357000
63.59999639	0.00000000	56.87746000	33.25541000
63.79999638	0.00000000	58.08316000	35.58071000
63.99999637	0.00000000	58.83366000	34.83022000
64.19999636	0.00000000	59.15354000	30.93627000
64.39999635	0.00000000	57.99089000	24.79700000
64.59999634	0.00000000	55.75787000	17.83341000
64.79999632	0.00000000	53.85088000	11.69414000
64.99999631	0.00000000	52.64517000	7.79404500
65.19999630	0.00000000	52.26993000	7.00049200
65.39999629	0.00000000	52.64517000	8.86441900
65.59999628	0.00000000	53.80167000	12.72146000
65.79999626	0.00000000	55.33957000	17.36589000
65.99999625	0.00000000	56.87746000	22.01033000
66.19999624	0.00000000	57.99089000	25.91043000
66.39999623	0.00000000	57.99089000	28.28494000
66.59999622	0.00000000	56.87746000	29.49065000
66.79999620	0.00000000	55.33957000	29.44759000
66.99999619	0.00000000	53.80167000	27.90969000
67.19999618	0.00000000	52.68823000	25.21530000
67.39999617	0.00000000	52.68823000	22.10261000
67.59999616	0.00000000	53.85088000	18.94685000
67.79999615	0.00000000	55.75787000	15.83415000
67.99999613	0.00000000	58.08316000	13.13976000
68.19999612	0.00000000	59.99015000	11.55881000
68.39999611	0.00000000	61.10974000	11.18356000
68.59999610	0.00000000	60.64222000	11.97711000
68.79999609	0.00000000	57.99089000	14.38853000
68.99999607	0.00000000	54.13385000	18.20251000
69.19999606	0.00000000	50.26451000	22.84695000
69.39999605	0.00000000	46.82579000	26.70398000
69.59999604	0.00000000	45.33710000	29.49065000
69.79999603	0.00000000	46.45054000	30.97933000
69.99999601	0.00000000	49.56939000	30.51181000
70.19999600	0.00000000	54.22613000	27.44832000
70.39999599	0.00000000	59.61491000	22.47785000
70.59999598	0.00000000	64.22859000	17.45817000
70.79999597	0.00000000	66.97219000	13.13976000
70.99999596	0.00000000	67.30437000	10.07013000
71.19999594	0.00000000	64.96678000	8.95669300
71.39999593	0.00000000	59.94709000	10.48843000
71.59999592	0.00000000	53.80167000	14.30241000
71.79999591	0.00000000	47.94537000	18.94685000
71.99999590	0.00000000	43.38090000	23.59129000
72.19999588	0.00000000	41.48006000	27.40526000
72.39999587	0.00000000	43.33784000	28.98007000
72.59999586	0.00000000	47.57013000	28.24188000
72.79999585	0.00000000	53.01427000	25.95964000
72.99999584	0.00000000	59.19660000	22.52091000
73.19999582	0.00000000	64.18552000	19.45743000
73.39999581	0.00000000	66.92913000	17.45817000
73.59999580	0.00000000	66.92913000	16.29552000
73.79999579	0.00000000	64.27164000	16.29552000
73.99999578	0.00000000	59.99015000	17.40895000
74.19999577	0.00000000	54.96432000	18.94685000
74.39999575	0.00000000	49.98769000	20.43553000
74.59999574	0.00000000	46.87500000	21.17372000
74.79999573	0.00000000	46.03223000	20.43553000
74.99999572	0.00000000	46.78272000	18.94685000
75.19999571	0.00000000	49.15108000	17.45817000
75.39999569	0.00000000	52.59596000	16.75689000
75.59999568	0.00000000	56.40993000	17.91953000
75.79999567	0.00000000	59.11048000	20.57087000
75.99999566	0.00000000	59.94709000	23.64050000
76.19999565	0.00000000	59.61491000	26.32874000
76.39999563	0.00000000	58.45841000	27.86663000
76.59999562	0.00000000	56.92052000	27.86663000
76.79999561	0.00000000	55.38263000	26.28568000
76.99999560	0.00000000	54.22613000	23.12992000
77.19999559	0.00000000	53.80167000	18.52854000
77.39999558	0.00000000	53.80167000	13.55807000
77.59999556	0.00000000	54.13385000	10.11319000
77.79999555	0.00000000	54.50295000	8.91363100
77.99999554	0.00000000	54.13385000	10.11319000
78.19999553	0.00000000	53.75861000	13.60113000
78.39999552	0.00000000	53.34030000	18.98991000
78.59999550	0.00000000	52.64517000	24.75394000
78.79999549	0.00000000	52.68823000	29.40452000
78.99999548	0.00000000	53.80167000	32.09276000
79.19999547	0.00000000	55.33957000	32.09276000
79.39999546	0.00000000	56.92052000	29.44759000
79.59999544	0.00000000	58.45841000	25.17224000
79.79999543	0.00000000	59.61491000	20.15256000
79.99999542	0.00000000	59.94709000	15.13902000
80.19999541	0.00000000	59.15354000	11.65108000
80.39999540	0.00000000	56.82825000	10.02707000
80.59999539	0.00000000	53.80167000	10.07013000
80.79999537	0.00000000	51.10728000	12.02018000
80.99999536	0.00000000	49.56939000	15.83415000
81.19999535	0.00000000	49.52633000	20.06029000
81.39999534	0.00000000	50.68897000	23.59129000
81.59999533	0.00000000	52.64517000	26.32874000
81.79999531	0.00000000	55.33957000	27.86663000
81.99999530	0.00000000	57.99089000	27.90969000
82.19999529	0.00000000	59.57185000	26.75320000
82.39999528	0.00000000	59.94709000	24.79700000
82.59999527	0.00000000	59.19660000	22.05955000
82.79999525	0.00000000	57.29576000	18.98991000
82.99999524	0.00000000	55.38263000	16.25246000
83.19999523	0.00000000	53.75861000	14.25320000
83.39999522	0.00000000	52.26993000	12.72146000
83.59999521	0.00000000	51.52559000	12.02018000
83.79999520	0.00000000	52.22071000	13.18282000
83.99999518	0.00000000	53.34030000	15.83415000
84.19999517	0.00000000	54.17691000	18.94685000
84.39999516	0.00000000	55.29650000	22.10261000
84.59999515	0.00000000	56.03469000	25.21530000
84.79999514	0.00000000	55.71481000	27.90969000
84.99999512	0.00000000	55.38263000	29.40452000
85.19999511	0.00000000	55.33957000	28.98007000
85.39999510	0.00000000	55.38263000	26.28568000
85.59999509	0.00000000	55.75787000	22.05955000
85.79999508	0.00000000	56.50221000	17.45817000
85.99999506	0.00000000	56.87746000	13.55807000
86.19999505	0.00000000	56.87746000	11.22662000
86.39999504	0.00000000	56.50221000	10.48843000
86.59999503	0.00000000	55.71481000	12.06939000
86.79999502	0.00000000	54.92125000	15.87721000
86.99999501	0.00000000	53.75861000	20.52780000
87.19999499	0.00000000	52.64517000	25.17224000
87.39999498	0.00000000	52.26993000	28.98007000
87.59999497	0.00000000	52.64517000	30.51796000
87.79999496	0.00000000	53.80167000	29.35531000
87.99999495	0.00000000	55.33957000	25.91043000
88.19999493	0.00000000	56.87746000	20.94611000
88.39999492	0.00000000	58.03395000	16.29552000
88.59999491	0.00000000	58.40920000	12.80758000
88.79999490	0.00000000	58.03395000	10.90674000
88.99999489	0.00000000	56.87746000	11.69414000
89.19999487	0.00000000	55.33957000	14.72072000
89.39999486	0.00000000	53.80167000	18.98991000
89.59999485	0.00000000	52.64517000	23.59129000
89.79999484	0.00000000	52.22071000	27.40526000
89.99999483	0.00000000	52.22071000	28.93701000
90.19999482	0.00000000	52.64517000	27.82357000
90.39999480	0.00000000	53.75861000	24.75394000
90.59999479	0.00000000	54.87204000	20.47859000
90.79999478	0.00000000	55.33957000	15.87721000
90.99999477	0.00000000	55.71481000	12.06939000
91.19999476	0.00000000	56.08390000	10.53150000
91.39999474	0.00000000	55.71481000	11.65108000
91.59999473	0.00000000	55.38263000	14.76378000
91.79999472	0.00000000	55.33957000	19.36516000
91.99999471	0.00000000	55.33957000	24.33563000
92.19999470	0.00000000	55.33957000	27.78051000
92.39999468	0.00000000	55.33957000	28.93701000
92.59999467	0.00000000	55.29650000	27.40526000
92.79999466	0.00000000	54.87204000	23.59129000
92.99999465	0.00000000	53.75861000	18.98991000
93.19999464	0.00000000	52.64517000	14.72072000
93.39999463	0.00000000	52.22071000	11.69414000
93.59999461	0.00000000	52.17765000	10.90674000
93.79999460	0.00000000	52.26993000	12.85064000
93.99999459	0.00000000	53.06348000	16.62155000
94.19999458	0.00000000	55.00738000	21.26599000
94.39999457	0.00000000	57.25270000	25.08612000
94.59999455	0.00000000	59.19660000	27.40526000
94.79999454	0.00000000	59.94709000	27.40526000
94.99999453	0.00000000	59.61491000	25.12918000
95.19999452	0.00000000	58.40920000	21.68430000
95.39999451	0.00000000	56.45300000	17.83341000
95.59999449	0.00000000	53.71555000	14.76378000
95.79999448	0.00000000	50.68897000	13.22589000
95.99999447	0.00000000	48.36368000	13.60113000
96.19999446	0.00000000	47.61319000	15.87721000
96.39999445	0.00000000	48.36368000	18.94685000
96.59999444	0.00000000	50.73204000	22.05955000
96.79999442	0.00000000	54.17691000	24.71087000
96.99999441	0.00000000	58.03395000	25.86737000
97.19999440	0.00000000	61.10974000	25.12918000
97.39999439	0.00000000	62.69069000	23.26525000
97.59999438	0.00000000	62.69069000	20.90305000
97.79999436	0.00000000	61.15280000	18.61466000
97.99999435	0.00000000	58.40920000	16.71383000
98.19999434	0.00000000	54.92125000	16.33858000
98.39999433	0.00000000	51.06422000	17.36589000
98.59999432	0.00000000	48.03149000	18.52854000
98.79999430	0.00000000	46.78272000	19.32210000
98.99999429	0.00000000	47.19488000	20.10950000
99.19999428	0.00000000	48.73892000	20.52780000
99.39999427	0.00000000	51.84547000	20.90305000
99.59999426	0.00000000	55.29650000	21.26599000
99.79999425	0.00000000	58.45841000	20.94611000
99.99999423	0.00000000	61.10974000	20.98917000
100.19999422	0.00000000	62.27239000	21.68430000
100.39999421	0.00000000	61.52805000	22.05955000
100.59999420	0.00000000	59.61491000	22.10261000
100.79999419	0.00000000	56.87746000	22.05955000
100.99999417	0.00000000	53.80167000	21.59203000
101.19999416	0.00000000	51.06422000	20.06029000
101.39999415	0.00000000	49.10802000	17.78420000
101.59999414	0.00000000	47.98843000	15.87721000
101.79999413	0.00000000	48.32062000	14.72072000
101.99999411	0.00000000	49.88927000	14.76378000
102.19999410	0.00000000	51.80856000	16.29552000
102.39999409	0.00000000	54.54601000	18.98991000
102.59999408	0.00000000	56.82825000	22.05955000
102.79999407	0.00000000	58.45841000	24.75394000
102.99999406	0.00000000	59.57185000	26.28568000
103.19999404	0.00000000	59.57185000	26.28568000
103.39999403	0.00000000	58.40920000	24.75394000
103.59999402	0.00000000	56.50221000	22.05955000
103.79999401	0.00000000	54.17691000	18.94685000
103.99999400	0.00000000	52.26993000	15.87721000
104.19999398	0.00000000	51.06422000	13.60113000
104.39999397	0.00000000	50.68897000	13.18282000
104.59999396	0.00000000	51.06422000	14.34547000
104.79999395	0.00000000	52.22071000	16.67077000
104.99999394	0.00000000	53.75861000	20.10950000
105.19999392	0.00000000	55.29650000	23.12992000
105.39999391	0.00000000	56.45300000	24.75394000
105.59999390	0.00000000	56.87746000	25.12918000
105.79999389	0.00000000	56.87746000	24.37869000
105.99999388	0.00000000	56.45300000	22.43479000
106.19999387	0.00000000	55.29650000	20.15256000
106.39999385	0.00000000	53.80167000	17.83341000
106.59999384	0.00000000	52.64517000	16.29552000
106.79999383	0.00000000	52.26993000	15.87721000
106.99999382	0.00000000	52.59596000	16.29552000
107.19999381	0.00000000	53.38336000	17.83341000
107.39999379	0.00000000	54.13385000	20.10950000
107.59999378	0.00000000	54.96432000	22.01649000
107.79999377	0.00000000	55.67175000	23.17298000
107.99999376	0.00000000	56.03469000	23.17298000
108.19999375	0.00000000	55.29650000	22.05955000
108.39999374	0.00000000	54.17691000	20.52780000
108.59999372	0.00000000	53.38336000	18.94685000
108.79999371	0.00000000	52.59596000	17.45817000
108.99999370	0.00000000	52.26993000	16.67077000
109.19999369	0.00000000	52.59596000	17.08292000
109.39999368	0.00000000	53.38336000	18.20251000
109.59999366	0.00000000	54.17691000	20.15256000
109.79999365	0.00000000	55.33957000	22.01649000
109.99999364	0.00000000	56.45300000	23.21604000
110.19999363	0.00000000	56.87746000	23.59129000
110.39999362	0.00000000	56.87746000	23.21604000
110.59999360	0.00000000	56.45300000	22.05955000
110.79999359	0.00000000	55.29650000	20.52780000
110.99999358	0.00000000	53.80167000	18.98991000
111.19999357	0.00000000	52.64517000	17.83341000
111.39999356	0.00000000	52.22071000	17.40895000
111.59999355	0.00000000	52.22071000	17.40895000
111.79999353	0.00000000	52.64517000	17.83341000
111.99999352	0.00000000	53.75861000	18.94685000
112.19999351	0.00000000	54.87204000	20.06029000
112.39999350	0.00000000	55.29650000	20.48474000
112.59999349	0.00000000	55.33957000	20.52780000
112.79999347	0.00000000	55.33957000	20.52780000
112.99999346	0.00000000	55.33957000	20.52780000
113.19999345	0.00000000	55.29650000	20.52780000
113.39999344	0.00000000	54.92125000	20.52780000
113.59999343	0.00000000	54.17691000	20.48474000
113.79999341	0.00000000	53.80167000	20.10950000
113.99999340	0.00000000	53.75861000	19.36516000
114.19999339	0.00000000	53.75861000	18.94685000
114.39999338	0.00000000	53.75861000	18.57160000
114.59999337	0.00000000	53.75861000	18.15945000
114.79999336	0.00000000	53.80167000	18.15330000
114.99999334	0.00000000	54.17691000	17.78420000
115.19999333	0.00000000	54.92125000	17.83341000
115.39999332	0.00000000	55.29650000	18.52854000
115.59999331	0.00000000	55.29650000	18.94685000
115.79999330	0.00000000	54.92125000	19.36516000
115.99999328	0.00000000	54.17691000	20.15256000
116.19999327	0.00000000	53.80167000	20.90305000
116.39999326	0.00000000	53.75861000	21.68430000
116.59999325	0.00000000	53.75861000	22.01033000
116.79999324	0.00000000	53.75861000	21.68430000
116.99999322	0.00000000	53.75861000	20.90305000
117.19999321	0.00000000	53.85088000	20.15256000
117.39999320	0.00000000	54.55216000	19.32210000
117.59999319	0.00000000	55.70866000	18.57160000
117.79999318	0.00000000	56.09006000	17.78420000
117.99999317	0.00000000	56.50221000	17.40895000
118.19999315	0.00000000	56.45300000	17.40895000
118.39999314	0.00000000	55.71481000	17.78420000
118.59999313	0.00000000	54.92125000	18.57160000
118.79999312	0.00000000	53.75861000	19.32210000
118.99999311	0.00000000	52.59596000	20.15256000
119.19999309	0.00000000	51.80241000	20.90305000
119.39999308	0.00000000	51.06422000	21.64124000
119.59999307	0.00000000	51.10728000	21.64124000
119.79999306	0.00000000	52.22071000	20.94611000
119.99999305	0.00000000	53.75861000	20.57087000
120.19999303	0.00000000	55.29650000	20.48474000
120.39999302	0.00000000	56.45300000	20.10950000
120.59999301	0.00000000	56.82825000	19.36516000
120.79999300	0.00000000	56.50221000	18.98991000
120.99999299	0.00000000	55.71481000	18.94685000
121.19999298	0.00000000	54.96432000	18.94685000
121.39999296	0.00000000	54.13385000	18.94685000
121.59999295	0.00000000	53.34030000	18.94685000
121.79999294	0.00000000	52.17765000	18.94685000
121.99999293	0.00000000	51.10728000	18.98991000
122.19999292	0.00000000	51.06422000	19.36516000
122.39999290	0.00000000	51.80241000	20.10950000
122.59999289	0.00000000	52.59596000	20.52780000
122.79999288	0.00000000	53.75861000	20.90305000
122.99999287	0.00000000	54.87204000	21.26599000
123.19999286	0.00000000	55.33957000	20.90305000
123.39999284	0.00000000	55.75787000	20.52780000
123.59999283	0.00000000	56.45300000	20.10950000
123.79999282	0.00000000	56.45300000	19.36516000
123.99999281	0.00000000	55.71481000	18.94685000
124.19999280	0.00000000	54.96432000	18.57160000
124.39999279	0.00000000	54.13385000	18.20251000
124.59999277	0.00000000	53.38336000	18.57160000
124.79999276	0.00000000	52.59596000	18.90379000
124.99999275	0.00000000	52.22071000	18.98991000
125.19999274	0.00000000	52.17765000	19.36516000
125.39999273	0.00000000	52.22071000	20.10950000
125.59999271	0.00000000	52.59596000	20.48474000
125.79999270	0.00000000	53.38336000	20.52780000
125.99999269	0.00000000	54.13385000	20.52780000
126.19999268	0.00000000	54.96432000	20.52780000
126.39999267	0.00000000	55.67175000	20.52780000
126.59999265	0.00000000	56.08390000	20.48474000
126.79999264	0.00000000	55.67175000	20.10950000
126.99999263	0.00000000	54.96432000	19.36516000
127.19999262	0.00000000	54.13385000	18.98991000
127.39999261	0.00000000	53.38336000	18.94685000
127.59999260	0.00000000	52.59596000	18.94685000
127.79999258	0.00000000	52.22071000	18.94685000
127.99999257	0.00000000	52.17765000	18.94685000
128.19999256	0.00000000	52.22071000	18.98991000
128.39999255	0.00000000	52.64517000	19.36516000
128.59999254	0.00000000	53.75861000	20.10950000
128.79999252	0.00000000	54.87204000	20.48474000
128.99999251	0.00000000	55.29650000	20.48474000
129.19999250	0.00000000	55.33957000	20.10950000
129.39999249	0.00000000	55.29650000	19.36516000
129.59999248	0.00000000	54.87204000	18.98991000
129.79999246	0.00000000	53.75861000	18.94685000
129.99999245	0.00000000	52.64517000	18.94685000
130.19999244	0.00000000	52.22071000	18.94685000
130.39999243	0.00000000	52.17765000	18.98991000
130.59999242	0.00000000	52.22071000	19.36516000
130.79999241	0.00000000	52.59596000	20.10950000
130.99999239	0.00000000	53.38336000	20.48474000
131.19999238	0.00000000	54.13385000	20.48474000
131.39999237	0.00000000	54.92125000	20.10950000
131.59999236	0.00000000	55.24729000	19.36516000
131.79999235	0.00000000	54.92125000	18.98991000
131.99999233	0.00000000	54.17691000	18.90379000
132.19999232	0.00000000	53.75861000	18.52854000
132.39999231	0.00000000	53.38336000	17.83341000
132.59999230	0.00000000	53.01427000	17.83341000
132.79999229	0.00000000	53.38336000	18.57160000
132.99999227	0.00000000	53.71555000	19.32210000
133.19999226	0.00000000	53.75861000	20.10950000
133.39999225	0.00000000	53.75861000	20.52780000
133.59999224	0.00000000	53.75861000	20.90305000
133.79999223	0.00000000	53.75861000	21.26599000
133.99999222	0.00000000	53.75861000	20.90305000
134.19999220	0.00000000	53.75861000	20.52780000
134.39999219	0.00000000	53.75861000	20.10950000
134.59999218	0.00000000	53.75861000	19.32210000
134.79999217	0.00000000	53.75861000	18.57160000
134.99999216	0.00000000	53.75861000	17.78420000
135.19999214	0.00000000	53.80167000	17.45817000
135.39999213	0.00000000	54.13385000	17.78420000
135.59999212	0.00000000	54.50295000	18.52854000
135.79999211	0.00000000	54.13385000	18.94685000
135.99999210	0.00000000	53.75861000	19.41437000
136.19999208	0.00000000	53.34030000	20.47859000
136.39999207	0.00000000	52.59596000	21.22293000
136.59999206	0.00000000	52.22071000	20.90305000
136.79999205	0.00000000	52.22071000	20.57087000
136.99999204	0.00000000	52.64517000	20.48474000
137.19999203	0.00000000	53.75861000	20.10950000
137.39999201	0.00000000	54.82898000	19.32210000
137.59999200	0.00000000	54.92125000	18.57160000
137.79999199	0.00000000	54.59522000	17.83341000
137.99999198	0.00000000	54.92125000	17.78420000
138.19999197	0.00000000	54.87204000	18.15330000
138.39999195	0.00000000	54.17691000	18.15945000
138.59999194	0.00000000	53.75861000	18.57160000
138.79999193	0.00000000	53.34030000	18.94685000
138.99999192	0.00000000	52.59596000	19.36516000
139.19999191	0.00000000	52.22071000	20.10950000
139.39999189	0.00000000	52.22071000	20.48474000
139.59999188	0.00000000	52.59596000	20.52780000
139.79999187	0.00000000	53.38336000	20.52780000
139.99999186	0.00000000	54.13385000	20.52780000
140.19999185	0.00000000	54.92125000	20.48474000
140.39999184	0.00000000	55.24729000	20.10950000
140.59999182	0.00000000	54.92125000	19.32210000
140.79999181	0.00000000	54.17691000	18.57160000
140.99999180	0.00000000	53.80167000	17.83341000
141.19999179	0.00000000	53.71555000	17.78420000
141.39999178	0.00000000	53.34030000	18.15330000
141.59999176	0.00000000	52.64517000	18.20251000
141.79999175	0.00000000	52.64517000	18.98991000
141.99999174	0.00000000	53.34030000	20.10950000
142.19999173	0.00000000	53.71555000	20.85384000
142.39999172	0.00000000	53.75861000	21.26599000
142.59999170	0.00000000	53.75861000	20.85384000
142.79999169	0.00000000	53.75861000	20.15256000
142.99999168	0.00000000	53.75861000	19.32210000
143.19999167	0.00000000	53.75861000	18.57160000
143.39999166	0.00000000	53.71555000	17.78420000
143.59999165	0.00000000	53.38336000	17.40895000
143.79999163	0.00000000	53.01427000	17.40895000
143.99999162	0.00000000	53.38336000	17.78420000
144.19999161	0.00000000	53.71555000	18.57160000
144.39999160	0.00000000	53.75861000	19.32210000
144.59999159	0.00000000	53.75861000	20.10950000
144.79999157	0.00000000	53.75861000	20.48474000
144.99999156	0.00000000	53.75861000	20.52780000
145.19999155	0.00000000	53.75861000	20.52780000
145.39999154	0.00000000	53.75861000	20.52780000
145.59999153	0.00000000	53.75861000	20.48474000
145.79999151	0.00000000	53.71555000	20.10950000
145.99999150	0.00000000	53.38336000	19.36516000
146.19999149	0.00000000	53.01427000	18.94685000
146.39999148	0.00000000	53.38336000	18.57160000
146.59999147	0.00000000	53.71555000	18.20251000
146.79999146	0.00000000	53.75861000	18.57160000
146.99999144	0.00000000	53.75861000	18.94685000
147.19999143	0.00000000	53.75861000	19.36516000
147.39999142	0.00000000	53.75861000	20.10950000
147.59999141	0.00000000	53.75861000	20.48474000
147.79999140	0.00000000	53.75861000	20.52780000
147.99999138	0.00000000	53.71555000	20.52780000
148.19999137	0.00000000	53.34030000	20.52780000
148.39999136	0.00000000	52.59596000	20.52780000
148.59999135	0.00000000	52.26993000	20.48474000
148.79999134	0.00000000	52.59596000	20.10950000
148.99999132	0.00000000	53.34030000	19.36516000
149.19999131	0.00000000	53.71555000	18.98991000
149.39999130	0.00000000	53.75861000	18.94685000
149.59999129	0.00000000	53.75861000	18.94685000
149.79999128	0.00000000	53.71555000	18.90379000
149.99999127	0.00000000	53.42642000	18.61466000
150.19999125	0.00000000	53.38951000	18.62697000
150.39999124	0.00000000	54.12770000	19.73425000
150.59999123	0.00000000	54.09079000	20.39247000
150.79999122	0.00000000	53.75861000	20.10950000
150.99999121	0.00000000	53.34030000	19.36516000
151.19999119	0.00000000	52.59596000	18.98991000
151.39999118	0.00000000	52.22071000	18.94685000
151.59999117	0.00000000	52.22071000	18.94685000
151.79999116	0.00000000	52.59596000	18.94685000
151.99999115	0.00000000	53.34030000	18.94685000
152.19999113	0.00000000	53.71555000	18.94685000
152.39999112	0.00000000	53.75861000	18.94685000
152.59999111	0.00000000	53.75861000	18.94685000
152.79999110	0.00000000	53.75861000	18.94685000
152.99999109	0.00000000	53.75861000	18.94685000
153.19999108	0.00000000	53.75861000	18.94685000
153.39999106	0.00000000	53.71555000	18.94685000
153.59999105	0.00000000	53.34030000	18.94685000
153.79999104	0.00000000	52.59596000	18.98991000
153.99999103	0.00000000	52.22071000	19.32210000
154.19999102	0.00000000	52.17765000	19.69119000
154.39999100	0.00000000	52.17765000	19.32210000
154.59999099	0.00000000	52.17765000	18.98991000
154.79999098	0.00000000	52.22071000	18.94685000
154.99999097	0.00000000	52.59596000	18.94685000
155.19999096	0.00000000	53.34030000	18.94685000
155.39999094	0.00000000	53.71555000	18.94685000
155.59999093	0.00000000	53.75861000	18.94685000
155.79999092	0.00000000	53.75861000	18.94685000
155.99999091	0.00000000	53.75861000	18.94685000
156.19999090	0.00000000	53.75861000	18.98991000
156.39999089	0.00000000	53.71555000	19.36516000
156.59999087	0.00000000	53.34030000	20.10950000
156.79999086	0.00000000	52.59596000	20.48474000
156.99999085	0.00000000	52.22071000	20.52780000
157.19999084	0.00000000	52.17765000	20.52780000
157.39999083	0.00000000	52.17765000	20.52780000
157.59999081	0.00000000	52.17765000	20.48474000
157.79999080	0.00000000	52.22071000	20.10950000
157.99999079	0.00000000	52.59596000	19.36516000
158.19999078	0.00000000	53.38336000	18.98991000
158.39999077	0.00000000	54.09079000	18.94685000
158.59999075	0.00000000	54.50295000	18.94685000
158.79999074	0.00000000	54.13385000	18.94685000
158.99999073	0.00000000	53.80167000	18.98991000
159.19999072	0.00000000	53.75861000	19.36516000
159.39999071	0.00000000	53.75861000	20.10950000
159.59999070	0.00000000	53.71555000	20.48474000
159.79999068	0.00000000	53.34030000	20.52780000
159.99999067	0.00000000	52.59596000	20.52780000
160.19999066	0.00000000	52.22071000	20.48474000
160.39999065	0.00000000	52.17765000	20.10950000
160.59999064	0.00000000	52.22071000	19.36516000
160.79999062	0.00000000	52.59596000	18.98991000
160.99999061	0.00000000	53.34030000	18.94685000
161.19999060	0.00000000	53.71555000	18.94685000
161.39999059	0.00000000	53.75861000	18.94685000
161.59999058	0.00000000	53.75861000	18.94685000
161.79999056	0.00000000	53.75861000	18.94685000
161.99999055	0.00000000	53.75861000	18.94685000
162.19999054	0.00000000	53.75861000	18.98991000
162.39999053	0.00000000	53.75861000	19.36516000
162.59999052	0.00000000	53.71555000	20.10950000
162.79999051	0.00000000	53.34030000	20.43553000
162.99999049	0.00000000	52.59596000	20.10950000
163.19999048	0.00000000	52.22071000	19.36516000
163.39999047	0.00000000	52.17765000	18.98991000
163.59999046	0.00000000	52.17765000	18.94685000
163.79999045	0.00000000	52.22071000	18.98991000
163.99999043	0.00000000	52.50984000	19.32210000
164.19999042	0.00000000	52.54675000	19.69119000
164.39999041	0.00000000	51.85777000	19.32210000
164.59999040	0.00000000	52.26993000	18.94685000
164.79999039	0.00000000	53.29109000	18.57160000
164.99999037	0.00000000	53.75861000	18.20251000
165.19999036	0.00000000	54.13385000	18.57160000
165.39999035	0.00000000	54.45374000	18.90379000
165.59999034	0.00000000	53.71555000	18.94685000
165.79999033	0.00000000	52.64517000	18.94685000
165.99999032	0.00000000	52.22071000	18.94685000
166.19999030	0.00000000	52.17765000	18.94685000
166.39999029	0.00000000	52.17765000	18.94685000
166.59999028	0.00000000	52.17765000	18.94685000
166.79999027	0.00000000	52.17765000	18.94685000
166.99999026	0.00000000	52.17765000	18.94685000
167.19999024	0.00000000	52.22071000	18.94685000
167.39999023	0.00000000	52.59596000	18.94685000
167.59999022	0.00000000	53.34030000	18.94685000
167.79999021	0.00000000	53.71555000	18.94685000
167.99999020	0.00000000	53.75861000	18.94685000
168.19999018	0.00000000	53.75861000	18.94685000
168.39999017	0.00000000	53.71555000	18.94685000
168.59999016	0.00000000	53.34030000	18.94685000
168.79999015	0.00000000	52.59596000	18.94685000
168.99999014	0.00000000	52.22071000	18.94685000
169.19999013	0.00000000	52.17765000	18.94685000
169.39999011	0.00000000	52.13459000	18.94685000
169.59999010	0.00000000	51.80241000	18.94685000
169.79999009	0.00000000	51.43332000	18.94685000
169.99999008	0.00000000	51.80241000	18.94685000
170.19999007	0.00000000	52.13459000	18.98991000
170.39999005	0.00000000	52.22071000	19.32210000
170.59999004	0.00000000	52.59596000	19.69119000
170.79999003	0.00000000	53.34030000	19.32210000
170.99999002	0.00000000	53.71555000	18.98991000
171.19999001	0.00000000	53.75861000	18.94685000
171.39998999	0.00000000	53.75861000	18.94685000
171.59998998	0.00000000	53.75861000	18.94685000
171.79998997	0.00000000	53.75861000	18.94685000
171.99998996	0.00000000	53.71555000	18.94685000
172.19998995	0.00000000	53.34030000	18.94685000
172.39998994	0.00000000	52.59596000	18.94685000
172.59998992	0.00000000	52.22071000	18.94685000
172.79998991	0.00000000	52.17765000	18.94685000
172.99998990	0.00000000	52.17765000	18.94685000
173.19998989	0.00000000	52.17765000	18.94685000
173.39998988	0.00000000	52.22071000	18.94685000
173.59998986	0.00000000	52.59596000	18.94685000
173.79998985	0.00000000	53.29109000	18.94685000
173.99998984	0.00000000	53.29109000	18.94685000
174.19998983	0.00000000	52.59596000	18.94685000
174.39998982	0.00000000	52.26993000	18.94685000
174.59998980	0.00000000	52.55290000	18.94685000
174.79998979	0.00000000	52.92200000	18.94685000
174.99998978	0.00000000	52.55290000	18.94685000
175.19998977	0.00000000	52.22071000	18.94685000
175.39998976	0.00000000	52.17765000	18.94685000
175.59998975	0.00000000	52.17765000	18.94685000
175.79998973	0.00000000	52.17765000	18.94685000
175.99998972	0.00000000	52.17765000	18.94685000
176.19998971	0.00000000	52.17765000	18.94685000
176.39998970	0.00000000	52.22071000	18.94685000
176.59998969	0.00000000	52.59596000	18.94685000
176.79998967	0.00000000	53.29109000	18.94685000
176.99998966	0.00000000	53.29109000	18.94685000
177.19998965	0.00000000	52.59596000	18.94685000
177.39998964	0.00000000	52.22071000	18.94685000
177.59998963	0.00000000	52.17765000	18.94685000
177.79998961	0.00000000	52.13459000	18.85458000
177.99998960	0.00000000	51.84547000	18.19636000
178.19998959	0.00000000	51.80856000	17.50738000
178.39998958	0.00000000	52.54675000	18.57160000
178.59998957	0.00000000	52.50984000	19.55585000
178.79998956	0.00000000	52.22071000	18.94685000
178.99998954	0.00000000	52.17765000	18.25172000
179.19998953	0.00000000	52.17765000	18.57160000
179.39998952	0.00000000	52.22071000	18.90379000
179.59998951	0.00000000	52.55290000	18.94685000
179.79998950	0.00000000	52.92200000	18.94685000
179.99998948	0.00000000	52.55290000	18.94685000
180.19998947	0.00000000	52.22071000	18.94685000
180.39998946	0.00000000	52.17765000	18.94685000
180.59998945	0.00000000	52.17765000	18.94685000
180.79998944	0.00000000	52.17765000	18.94685000
180.99998942	0.00000000	52.17765000	18.94685000
181.19998941	0.00000000	52.17765000	18.94685000
181.39998940	0.00000000	52.17765000	18.98991000
181.59998939	0.00000000	52.17765000	19.32210000
181.79998938	0.00000000	52.17765000	19.69119000
181.99998937	0.00000000	52.22071000	19.32210000
182.19998935	0.00000000	52.55290000	18.98991000
182.39998934	0.00000000	52.92200000	18.94685000
182.59998933	0.00000000	52.59596000	18.94685000
182.79998932	0.00000000	52.59596000	18.94685000
182.99998931	0.00000000	52.92200000	18.94685000
183.19998929	0.00000000	52.55290000	18.94685000
183.39998928	0.00000000	52.22071000	18.94685000
183.59998927	0.00000000	52.17765000	18.94685000
183.79998926	0.00000000	52.17765000	18.94685000
183.99998925	0.00000000	52.17765000	18.94685000
184.19998923	0.00000000	52.17765000	18.98991000
184.39998922	0.00000000	52.17765000	19.36516000
184.59998921	0.00000000	52.17765000	20.06029000
184.79998920	0.00000000	52.17765000	20.06029000
184.99998919	0.00000000	52.22071000	19.36516000
185.19998918	0.00000000	52.55290000	18.98991000
185.39998916	0.00000000	52.92200000	18.94685000
185.59998915	0.00000000	52.59596000	18.90379000
185.79998914	0.00000000	52.59596000	18.57160000
185.99998913	0.00000000	52.92200000	18.15945000
186.19998912	0.00000000	52.55290000	18.15330000
186.39998910	0.00000000	52.22071000	17.78420000
186.59998909	0.00000000	52.17765000	17.83341000
186.79998908	0.00000000	52.17765000	18.52854000
186.99998907	0.00000000	52.17765000	18.90379000
187.19998906	0.00000000	52.17765000	18.94685000
187.39998904	0.00000000	52.17765000	18.98991000
187.59998903	0.00000000	52.17765000	19.32210000
187.79998902	0.00000000	52.17765000	19.69119000
187.99998901	0.00000000	52.17765000	19.32210000
188.19998900	0.00000000	52.17765000	18.98991000
188.39998899	0.00000000	52.17765000	18.94685000
188.59998897	0.00000000	52.17765000	18.94685000
188.79998896	0.00000000	52.17765000	18.90379000
188.99998895	0.00000000	52.17765000	18.52854000
189.19998894	0.00000000	52.17765000	17.78420000
189.39998893	0.00000000	52.17765000	17.45817000
189.59998891	0.00000000	52.17765000	17.78420000
189.79998890	0.00000000	52.17765000	18.52854000
189.99998889	0.00000000	52.17765000	18.90379000
190.19998888	0.00000000	52.17765000	18.94685000
190.39998887	0.00000000	52.17765000	18.94685000
190.59998885	0.00000000	52.22071000	18.98991000
190.79998884	0.00000000	52.55290000	19.32210000
190.99998883	0.00000000	52.92200000	19.69119000
191.19998882	0.00000000	52.55290000	19.32210000
191.39998881	0.00000000	52.22071000	18.98991000
191.59998880	0.00000000	52.17765000	18.94685000
191.79998878	0.00000000	52.13459000	18.85458000
191.99998877	0.00000000	51.84547000	18.19636000
192.19998876	0.00000000	51.80856000	17.46432000
192.39998875	0.00000000	52.54675000	18.19636000
192.59998874	0.00000000	52.50984000	18.81152000
192.79998872	0.00000000	52.22071000	18.52854000
192.99998871	0.00000000	52.17765000	17.83341000
193.19998870	0.00000000	52.17765000	17.83341000
193.39998869	0.00000000	52.17765000	18.52854000
193.59998868	0.00000000	52.17765000	18.90379000
193.79998866	0.00000000	52.17765000	18.94685000
193.99998865	0.00000000	52.17765000	18.94685000
194.19998864	0.00000000	52.17765000	18.94685000
194.39998863	0.00000000	52.17765000	18.94685000
194.59998862	0.00000000	52.17765000	18.94685000
194.79998861	0.00000000	52.17765000	18.94685000
194.99998859	0.00000000	52.17765000	18.94685000
195.19998858	0.00000000	52.17765000	18.94685000
195.39998857	0.00000000	52.17765000	18.94685000
195.59998856	0.00000000	52.17765000	18.94685000
195.79998855	0.00000000	52.17765000	18.94685000
195.99998853	0.00000000	52.17765000	18.94685000
